# Soil optical properties :Very pale brown to brownish yellow interior dry gravelly silt loam
# Colums : Wavelength(nm) Reflectance(%) Transmitance(%)
#
300 0.6456
400 0.6456
401 0.8143
402 0.9242
403 0.9133
404 0.8822
405 1.1795
406 1.4909
407 1.5080
408 1.5770
409 1.8802
410 1.6245
411 1.7326
412 1.7879
413 2.2381
414 2.2772
415 2.2968
416 2.3363
417 2.4153
418 2.5140
419 2.6227
420 2.7515
421 3.0671
422 3.0999
423 3.1439
424 3.2941
425 3.2734
426 3.6275
427 3.9196
428 3.9681
429 4.0431
430 4.3097
431 4.6667
432 4.4489
433 4.4150
434 4.6397
435 4.8068
436 4.9276
437 5.2777
438 5.2777
439 5.2777
440 5.7963
441 6.0048
442 6.0531
443 6.2521
444 6.5647
445 6.6732
446 6.7494
447 7.0547
448 7.1131
449 7.0645
450 7.3102
451 7.6998
452 7.8233
453 7.9096
454 8.0781
455 8.0255
456 7.8436
457 7.8265
458 8.1264
459 8.0344
460 8.3512
461 8.7218
462 8.7527
463 8.6786
464 8.8959
465 8.8024
466 9.1231
467 8.9129
468 9.1422
469 9.3571
470 9.6145
471 9.5221
472 9.4384
473 9.4968
474 9.6612
475 10.0500
476 10.3570
477 9.9846
478 10.3350
479 10.4410
480 10.6100
481 10.7370
482 10.8060
483 10.8260
484 10.8890
485 11.1660
486 11.3840
487 11.4620
488 11.5670
489 11.5900
490 11.8960
491 12.0560
492 12.0110
493 12.2070
494 12.3260
495 12.3260
496 12.3160
497 12.9210
498 13.3160
499 13.5860
500 13.6170
501 13.6000
502 13.7850
503 13.8360
504 13.8670
505 13.8310
506 14.1810
507 14.1850
508 14.1850
509 14.4770
510 15.1880
511 15.2660
512 15.2130
513 15.4740
514 15.5540
515 16.0810
516 16.2140
517 16.3740
518 16.5130
519 16.7460
520 16.9630
521 17.2470
522 17.1040
523 17.3600
524 17.7260
525 17.8590
526 17.8300
527 17.9010
528 18.1300
529 18.2340
530 18.5120
531 18.8750
532 18.9790
533 19.2970
534 19.6110
535 19.5440
536 19.6790
537 20.4230
538 20.6310
539 20.8490
540 21.0990
541 21.5290
542 21.4250
543 21.4630
544 22.1110
545 22.2590
546 22.4670
547 22.8900
548 23.1390
549 23.3740
550 23.6840
551 23.9930
552 24.3010
553 24.5400
554 24.8840
555 25.1210
556 25.4220
557 25.4150
558 25.8320
559 25.3560
560 26.0360
561 26.4780
562 27.0290
563 27.2360
564 27.4670
565 27.6670
566 28.1890
567 28.5380
568 28.5720
569 29.0660
570 29.4990
571 29.7070
572 29.6450
573 30.0820
574 30.5980
575 30.5480
576 30.8760
577 31.1920
578 31.0750
579 31.2860
580 31.9460
581 32.0520
582 32.7620
583 32.6250
584 32.9450
585 33.9690
586 33.9770
587 33.7530
588 34.2120
589 34.0450
590 34.2690
591 34.7720
592 34.5330
593 34.8890
594 34.9580
595 34.5900
596 35.5590
597 35.4370
598 35.7090
599 35.7180
600 35.8020
601 35.8680
602 36.0500
603 36.2010
604 36.2160
605 36.4820
606 36.7070
607 36.7620
608 36.6560
609 37.0750
610 36.7530
611 36.9760
612 36.8780
613 36.8390
614 36.8350
615 37.1440
616 36.8410
617 36.6050
618 36.7020
619 36.9560
620 37.2670
621 37.3080
622 37.2470
623 37.7700
624 37.7790
625 37.6650
626 37.9770
627 37.9290
628 37.8800
629 38.0770
630 38.2870
631 38.2800
632 38.2960
633 37.8880
634 38.5010
635 38.7020
636 38.8540
637 38.4900
638 37.7500
639 38.1460
640 38.9620
641 39.2160
642 39.4230
643 39.1200
644 38.7610
645 39.1710
646 39.2170
647 39.1170
648 39.4770
649 39.4240
650 39.4150
651 39.7330
652 39.8290
653 39.5750
654 39.8300
655 40.0870
656 40.4500
657 40.4570
658 40.3500
659 40.4480
660 40.5540
661 40.5540
662 40.7620
663 40.5000
664 40.4470
665 40.4460
666 40.9630
667 41.3280
668 41.4880
669 41.0660
670 40.7020
671 40.8040
672 41.1700
673 41.5350
674 42.0070
675 41.8930
676 41.9490
677 41.7920
678 41.6810
679 41.7880
680 41.6210
681 42.0350
682 41.9860
683 42.5530
684 42.5040
685 42.4500
686 42.5500
687 42.3940
688 42.8190
689 42.8160
690 42.6420
691 42.6560
692 42.8190
693 42.9760
694 43.3340
695 43.7460
696 44.0720
697 44.1330
698 44.1060
699 44.1050
700 44.1530
701 44.6630
702 44.5980
703 43.8650
704 43.9650
705 44.6790
706 44.8260
707 44.8360
708 45.0390
709 44.7260
710 44.6790
711 44.6790
712 44.8620
713 44.8810
714 45.0020
715 45.2070
716 45.7140
717 45.6010
718 44.8070
719 44.6970
720 44.2090
721 44.5060
722 44.8240
723 45.3340
724 45.2030
725 45.0690
726 44.9600
727 45.2340
728 45.3780
729 45.3780
730 45.4890
731 45.3680
732 45.8010
733 46.0130
734 45.8010
735 46.0010
736 46.1140
737 45.6780
738 45.8340
739 45.8780
740 46.2340
741 46.3210
742 46.6200
743 46.6030
744 46.1780
745 45.9220
746 46.2220
747 46.2650
748 45.8990
749 46.1220
750 46.4210
751 45.9670
752 46.1220
753 46.4210
754 46.9040
755 46.7030
756 46.3650
757 46.3650
758 46.4410
759 46.5830
760 46.4960
761 46.7770
762 46.7900
763 47.0040
764 46.4530
765 46.2620
766 46.5400
767 46.6820
768 46.4720
769 46.3430
770 46.4840
771 46.3860
772 46.6700
773 46.8380
774 47.1770
775 47.4050
776 46.8900
777 47.0630
778 46.7690
779 46.8810
780 46.7400
781 47.0500
782 47.2770
783 46.8390
784 47.1500
785 47.0340
786 46.8210
787 46.3550
788 46.8520
789 46.9390
790 46.9510
791 46.6720
792 46.8950
793 47.2630
794 47.2490
795 47.4200
796 47.3200
797 47.1900
798 46.9030
799 46.9030
800 46.9030
804 47.4950
808 47.2560
812 46.5330
816 46.9190
820 47.4530
824 47.8800
828 47.7310
832 47.7800
836 47.6780
840 47.7720
844 47.2340
848 47.8960
852 47.8420
856 47.6540
860 47.9240
864 47.7930
868 47.5820
872 47.7160
876 47.8090
880 47.6980
884 48.0240
888 47.8320
892 47.7560
896 47.8080
900 47.9000
904 47.9000
908 47.8150
912 48.3090
916 47.9600
920 47.9720
924 48.1510
928 48.3820
932 48.6080
936 48.2230
940 48.6620
944 48.6750
948 48.7290
952 48.6490
956 48.9980
960 48.5550
964 48.3790
968 49.0490
972 48.7410
976 48.6740
980 48.3840
984 48.3460
988 49.6610
992 49.3340
996 49.7160
1000 49.7550
1004 49.6610
1008 49.9540
1012 50.3460
1016 50.4410
1020 50.9240
1024 50.8290
1028 50.4580
1032 50.4250
1036 51.0820
1040 51.2500
1044 51.2150
1048 51.0310
1052 50.8160
1056 50.7780
1060 51.0820
1064 51.1970
1068 51.3820
1072 51.4940
1076 51.0770
1080 51.6450
1084 52.0920
1088 52.3010
1092 52.0920
1096 51.8280
1100 51.7160
1104 51.6790
1108 52.2440
1112 52.6100
1116 53.1030
1120 53.1830
1124 53.5260
1128 53.1980
1132 53.7610
1136 53.3720
1140 53.2190
1144 52.9300
1148 53.0180
1152 52.9750
1156 53.0770
1160 53.2420
1164 53.5440
1168 53.8810
1172 54.0330
1176 54.0560
1180 53.9620
1184 54.1380
1188 54.3790
1192 54.5560
1196 54.6500
1200 54.6500
1204 54.5560
1208 54.3730
1212 54.6100
1216 54.2440
1220 54.0910
1224 54.3730
1228 54.8230
1232 54.7790
1236 54.9080
1240 54.7880
1244 54.6240
1248 54.8940
1252 54.7740
1256 54.4400
1260 54.4990
1264 54.3560
1268 54.6890
1272 54.5690
1276 54.5550
1280 54.7270
1284 54.8300
1288 54.9910
1292 55.1180
1296 55.1720
1300 54.6480
1304 54.4490
1308 54.8600
1312 54.9190
1316 54.7930
1320 54.8180
1324 54.7510
1328 54.3080
1332 54.3660
1336 54.1950
1340 53.2230
1344 53.2960
1348 53.4000
1352 53.7560
1356 53.1930
1360 53.7440
1364 53.1970
1368 53.7600
1372 53.2680
1376 53.8080
1380 53.1020
1384 53.2560
1388 52.7090
1392 51.9640
1396 51.4930
1400 50.2190
1404 49.4490
1408 48.7830
1412 48.9010
1416 49.1810
1420 49.8140
1424 50.1510
1428 50.2450
1432 50.1720
1436 50.0050
1440 50.1440
1444 50.7390
1448 50.8820
1452 51.5950
1456 52.0460
1460 52.2090
1464 52.3830
1468 52.3260
1472 52.3620
1476 52.6930
1480 52.8090
1484 52.9610
1488 53.1770
1492 53.4410
1496 52.8340
1500 53.4380
1504 54.1860
1508 54.2780
1512 54.0100
1516 53.8840
1520 53.6750
1524 53.4900
1528 53.6680
1532 54.0200
1536 54.5910
1540 54.8420
1544 54.9870
1548 55.4160
1552 55.6010
1556 55.5850
1560 56.0400
1564 56.0040
1568 55.8510
1572 55.3470
1576 55.5520
1580 55.7270
1584 55.7820
1588 56.5540
1592 56.2210
1596 56.0290
1600 55.9440
1604 55.5520
1608 55.6120
1612 55.9440
1616 56.2820
1620 56.6130
1624 56.7710
1628 56.7950
1632 56.3320
1636 56.3320
1640 56.3990
1644 56.6450
1648 57.3220
1652 57.7250
1656 57.0450
1660 56.7690
1664 57.0450
1668 56.5520
1672 56.5840
1676 57.2290
1680 56.9520
1684 56.8920
1688 57.1390
1692 56.9250
1696 56.7080
1700 56.8000
1704 57.4150
1708 57.1680
1712 57.0730
1716 57.1960
1720 56.8840
1724 56.3230
1728 55.7470
1732 55.8720
1736 55.6270
1740 55.4080
1744 55.4680
1748 55.7130
1752 55.8330
1756 56.0190
1760 55.8330
1764 55.9580
1768 55.9900
1772 55.9900
1776 56.0190
1780 55.9540
1784 55.6800
1788 56.2010
1792 56.2940
1796 56.6650
1800 56.2970
1804 56.4790
1808 56.5410
1812 56.8830
1816 56.6650
1820 56.4180
1824 56.3260
1828 56.0720
1832 55.2930
1836 55.0200
1840 55.1940
1844 55.5620
1848 56.1840
1852 56.4540
1856 56.5450
1860 55.3760
1864 53.1440
1868 51.1690
1872 50.3040
1876 49.6910
1880 48.5510
1884 47.0790
1888 45.4810
1892 43.2780
1896 41.3380
1900 39.1650
1904 37.4190
1908 36.3970
1912 36.0010
1916 36.0540
1920 36.6880
1924 37.4190
1928 37.7180
1932 38.3940
1936 39.2110
1940 39.5570
1944 40.3220
1948 40.9890
1952 41.7030
1956 42.1760
1960 42.6520
1964 43.0830
1968 43.6610
1972 44.3380
1976 45.2510
1980 46.0280
1984 47.1500
1988 48.0150
1992 48.5240
1996 49.5750
2000 50.0010
2004 50.9370
2008 51.8230
2012 52.3040
2016 53.0020
2020 53.2440
2024 53.5240
2028 53.4980
2032 53.7790
2036 54.2290
2040 54.6530
2044 54.7430
2048 54.4510
2052 54.6030
2056 54.7630
2060 55.2460
2064 54.7000
2068 54.3530
2072 54.2910
2076 54.8610
2079.5 54.8610
2080.3 54.8930
2081.2 55.0180
2082 55.3130
2082.8 55.1180
2083.7 55.0630
2084.5 54.9560
2085.3 54.8400
2086.2 54.8000
2087 54.7760
2087.9 54.7790
2088.7 54.7910
2089.5 54.7900
2090.4 54.7780
2091.2 54.7540
2092.1 54.7260
2092.9 54.7020
2093.8 54.6870
2094.6 54.6810
2095.5 54.6810
2096.3 54.6840
2097.1 54.6890
2098 54.6930
2098.8 54.6960
2099.7 54.6960
2100.5 54.6920
2101.4 54.6830
2102.3 54.6680
2103.1 54.6460
2104 54.6190
2104.8 54.5890
2105.7 54.5570
2106.5 54.5270
2107.4 54.4990
2108.2 54.4760
2109.1 54.4550
2110 54.4380
2110.8 54.4230
2111.7 54.4070
2112.5 54.3930
2113.4 54.3790
2114.3 54.3640
2115.1 54.3490
2116 54.3320
2116.8 54.3110
2117.7 54.2860
2118.6 54.2580
2119.4 54.2290
2120.3 54.2040
2121.2 54.1870
2122 54.1800
2122.9 54.1830
2123.8 54.1940
2124.7 54.2090
2125.5 54.2230
2126.4 54.2320
2127.3 54.2300
2128.1 54.2130
2129 54.1810
2129.9 54.1350
2130.8 54.0810
2131.6 54.0270
2132.5 53.9820
2133.4 53.9530
2134.3 53.9430
2135.2 53.9490
2136 53.9630
2136.9 53.9720
2137.8 53.9670
2138.7 53.9390
2139.6 53.8840
2140.4 53.8080
2141.3 53.7220
2142.2 53.6380
2143.1 53.5690
2144 53.5190
2144.9 53.4860
2145.8 53.4630
2146.6 53.4370
2147.5 53.3990
2148.4 53.3470
2149.3 53.2830
2150.2 53.2150
2151.1 53.1480
2152 53.0900
2152.9 53.0370
2153.8 52.9870
2154.7 52.9330
2155.6 52.8710
2156.5 52.7960
2157.4 52.7080
2158.3 52.6110
2159.2 52.5100
2160.1 52.4110
2161 52.3230
2161.9 52.2520
2162.8 52.2010
2163.7 52.1670
2164.6 52.1450
2165.5 52.1270
2166.4 52.1030
2167.3 52.0690
2168.2 52.0220
2169.1 51.9690
2170 51.9150
2170.9 51.8690
2171.8 51.8360
2172.7 51.8140
2173.6 51.8000
2174.6 51.7850
2175.5 51.7630
2176.4 51.7310
2177.3 51.6900
2178.2 51.6440
2179.1 51.5970
2180 51.5520
2181 51.5080
2181.9 51.4640
2182.8 51.4170
2183.7 51.3660
2184.6 51.3110
2185.6 51.2550
2186.5 51.1990
2187.4 51.1430
2188.3 51.0860
2189.3 51.0270
2190.2 50.9630
2191.1 50.8950
2192 50.8240
2193 50.7520
2193.9 50.6800
2194.8 50.6070
2195.7 50.5320
2196.7 50.4500
2197.6 50.3590
2198.5 50.2540
2199.5 50.1320
2200.4 49.9920
2201.3 49.8280
2202.3 49.6410
2203.2 49.4310
2204.1 49.2020
2205.1 48.9670
2206 48.7440
2207 48.5520
2207.9 48.4120
2208.8 48.3410
2209.8 48.3410
2210.7 48.4080
2211.7 48.5260
2212.6 48.6710
2213.6 48.8190
2214.5 48.9480
2215.5 49.0450
2216.4 49.1060
2217.3 49.1340
2218.3 49.1390
2219.2 49.1350
2220.2 49.1360
2221.1 49.1530
2222.1 49.1920
2223.1 49.2560
2224 49.3420
2225 49.4400
2225.9 49.5430
2226.9 49.6390
2227.8 49.7210
2228.8 49.7850
2229.7 49.8300
2230.7 49.8580
2231.7 49.8730
2232.6 49.8820
2233.6 49.8900
2234.5 49.9020
2235.5 49.9170
2236.5 49.9330
2237.4 49.9460
2238.4 49.9490
2239.4 49.9400
2240.3 49.9210
2241.3 49.8990
2242.3 49.8810
2243.3 49.8730
2244.2 49.8780
2245.2 49.8910
2246.2 49.9040
2247.1 49.9080
2248.1 49.8950
2249.1 49.8650
2250.1 49.8210
2251 49.7690
2252 49.7190
2253 49.6770
2254 49.6480
2255 49.6330
2255.9 49.6310
2256.9 49.6390
2257.9 49.6530
2258.9 49.6680
2259.9 49.6820
2260.9 49.6940
2261.8 49.7030
2262.8 49.7110
2263.8 49.7200
2264.8 49.7270
2265.8 49.7320
2266.8 49.7320
2267.8 49.7240
2268.8 49.7090
2269.8 49.6880
2270.8 49.6660
2271.8 49.6480
2272.8 49.6350
2273.8 49.6280
2274.7 49.6240
2275.7 49.6200
2276.7 49.6120
2277.7 49.5980
2278.7 49.5780
2279.8 49.5530
2280.8 49.5210
2281.8 49.4810
2282.8 49.4300
2283.8 49.3670
2284.8 49.2910
2285.8 49.2080
2286.8 49.1250
2287.8 49.0520
2288.8 48.9930
2289.8 48.9510
2290.8 48.9220
2291.8 48.9000
2292.9 48.8760
2293.9 48.8440
2294.9 48.8040
2295.9 48.7540
2296.9 48.7010
2297.9 48.6510
2299 48.6070
2300 48.5730
2301 48.5450
2302 48.5200
2303 48.4920
2304.1 48.4580
2305.1 48.4160
2306.1 48.3650
2307.1 48.3070
2308.2 48.2400
2309.2 48.1640
2310.2 48.0800
2311.3 47.9920
2312.3 47.9070
2313.3 47.8340
2314.4 47.7830
2315.4 47.7580
2316.4 47.7590
2317.5 47.7790
2318.5 47.8050
2319.5 47.8230
2320.6 47.8200
2321.6 47.7890
2322.6 47.7310
2323.7 47.6510
2324.7 47.5600
2325.8 47.4680
2326.8 47.3820
2327.9 47.3020
2328.9 47.2270
2330 47.1540
2331 47.0790
2332.1 47.0000
2333.1 46.9190
2334.2 46.8370
2335.2 46.7580
2336.3 46.6840
2337.3 46.6150
2338.4 46.5500
2339.4 46.4880
2340.5 46.4290
2341.5 46.3730
2342.6 46.3200
2343.6 46.2720
2344.7 46.2290
2345.8 46.1900
2346.8 46.1520
2347.9 46.1130
2349 46.0700
2350 46.0250
2351.1 45.9810
2352.2 45.9440
2353.2 45.9170
2354.3 45.9060
2355.4 45.9080
2356.4 45.9190
2357.5 45.9290
2358.6 45.9300
2359.7 45.9150
2360.7 45.8820
2361.8 45.8340
2362.9 45.7750
2364 45.7110
2365 45.6480
2366.1 45.5840
2367.2 45.5180
2368.3 45.4450
2369.4 45.3670
2370.4 45.2820
2371.5 45.1960
2372.6 45.1090
2373.7 45.0230
2374.8 44.9330
2375.9 44.8370
2377 44.7290
2378.1 44.6120
2379.1 44.4890
2380.2 44.3690
2381.3 44.2570
2382.4 44.1550
2383.5 44.0610
2384.6 43.9670
2385.7 43.8670
2386.8 43.7590
2387.9 43.6450
2389 43.5310
2390.1 43.4190
2391.2 43.3130
2392.3 43.2110
2393.4 43.1080
2394.5 43.0010
2395.6 42.8890
2396.7 42.7710
2397.9 42.6510
2399 42.5300
2400.1 42.4130
2401.2 42.2990
2402.3 42.1860
2403.4 42.0730
2404.5 41.9580
2405.6 41.8400
2406.8 41.7190
2407.9 41.5990
2409 41.4840
2410.1 41.3780
2411.2 41.2800
2412.4 41.1900
2413.5 41.1020
2414.6 41.0090
2415.7 40.9080
2416.9 40.7980
2418 40.6810
2419.1 40.5600
2420.2 40.4420
2421.4 40.3300
2422.5 40.2270
2423.6 40.1310
2424.8 40.0400
2425.9 39.9470
2427 39.8480
2428.2 39.7390
2429.3 39.6190
2430.5 39.4910
2431.6 39.3600
2432.7 39.2320
2433.9 39.1140
2435 39.0060
2436.2 38.9070
2437.3 38.8160
2438.5 38.7250
2439.6 38.6320
2440.8 38.5340
2441.9 38.4310
2443.1 38.3240
2444.2 38.2170
2445.4 38.1130
2446.5 38.0160
2447.7 37.9280
2448.8 37.8500
2450 37.7810
2451.1 37.7150
2452.3 37.6480
2453.5 37.5750
2454.6 37.4920
2455.8 37.4010
2456.9 37.3070
2458.1 37.2170
2459.3 37.1370
2460.4 37.0710
2461.6 37.0160
2462.8 36.9680
2464 36.9180
2465.1 36.8570
2466.3 36.7800
2467.5 36.6850
2468.6 36.5750
2469.8 36.4600
2471 36.3490
2472.2 36.2480
2473.4 36.1640
2474.5 36.0920
2475.7 36.0290
2476.9 35.9670
2478.1 35.9000
2479.3 35.8260
2480.5 35.7480
2481.6 35.6720
2482.8 35.6030
2484 35.5450
2485.2 35.4960
2486.4 35.4560
2487.6 35.4190
2488.8 35.3840
2490 35.3510
2491.2 35.3200
2492.4 35.2930
2493.6 35.2710
2494.8 35.2540
2496 35.2380
2497.2 35.2230
2498.4 35.2070
2499.6 35.1890
2500.8 35.1730
2502 35.1580
2503.2 35.1460
2504.4 35.1380
2505.6 35.1330
2506.8 35.1310
2508.1 35.1300
2509.3 35.1310
2510.5 35.1310
2511.7 35.1280
2512.9 35.1170
2514.1 35.0960
2515.4 35.0630
2516.6 35.0200
2517.8 34.9730
2519 34.9290
2520.2 34.8930
2521.5 34.8650
2522.7 34.8410
2523.9 34.8130
2525.2 34.7730
2526.4 34.7110
2527.6 34.6260
2528.9 34.5230
2530.1 34.4120
2531.3 34.3090
2532.6 34.2270
2533.8 34.1750
2535 34.1540
2536.3 34.1580
2537.5 34.1750
2538.8 34.1940
2540 34.2110
2541.3 34.2250
2542.5 34.2370
2543.7 34.2500
2545 34.2640
2546.2 34.2810
2547.5 34.3070
2548.7 34.3510
2550 34.4280
2551.3 34.5400
2552.5 34.6730
2553.8 34.7850
2555 34.8250
2556.3 34.7520
2557.5 34.5550
2558.8 34.2710
2560.1 33.9730
2561.3 33.7440
2562.6 33.6460
2563.9 33.6860
2565.1 33.8210
2566.4 33.9770
2567.7 34.0810
2569 34.0960
2570.2 34.0340
2571.5 33.9420
2572.8 33.8760
2574.1 33.8660
2575.3 33.9070
2576.6 33.9540
2577.9 33.9540
2579.2 33.8730
2580.5 33.7180
2581.7 33.5390
2583 33.4010
2584.3 33.3460
2585.6 33.3610
2586.9 33.3790
2588.2 33.3080
2589.5 33.0830
2590.8 32.7110
2592.1 32.2860
2593.4 31.9520
2594.7 31.8330
2596 31.9710
2597.3 32.3020
2598.6 32.6820
2599.9 32.9520
2601.2 33.0130
2602.5 32.8720
2603.8 32.6320
2605.1 32.4300
2606.4 32.3700
2607.7 32.4780
2609 32.6900
2610.3 32.8850
2611.7 32.9500
2613 32.8350
2614.3 32.5680
2615.6 32.2400
2616.9 31.9640
2618.3 31.8240
2619.6 31.8380
2620.9 31.9520
2622.2 32.0660
2623.6 32.0860
2624.9 31.9590
2626.2 31.6980
2627.5 31.3780
2628.9 31.1060
2630.2 30.9690
2631.5 31.0080
2632.9 31.2010
2634.2 31.4770
2635.6 31.7440
2636.9 31.9210
2638.2 31.9690
2639.6 31.8870
2640.9 31.7120
2642.3 31.4870
2643.6 31.2530
2645 31.0260
2646.3 30.8040
2647.7 30.5750
2649 30.3280
2650.4 30.0670
2651.7 29.8070
2653.1 29.5670
2654.5 29.3520
2655.8 29.1430
2657.2 28.8980
2658.5 28.5620
2659.9 28.0900
2661.3 27.4670
2662.6 26.7250
2664 25.9380
2665.4 25.1990
2666.7 24.5900
2668.1 24.1540
2669.5 23.8870
2670.9 23.7300
2672.2 23.6060
2673.6 23.4470
2675 23.2130
2676.4 22.8970
2677.8 22.5150
2679.1 22.0880
2680.5 21.6230
2681.9 21.1040
2683.3 20.4990
2684.7 19.7750
2686.1 18.9100
2687.5 17.9010
2688.9 16.7680
2690.3 15.5500
2691.7 14.2970
2693.1 13.0530
2694.5 11.8580
2695.9 10.7370
2697.3 9.7041
2698.7 8.7700
2700.1 7.9475
2701.5 7.2546
2702.9 6.7143
2704.3 6.3464
2705.7 6.1599
2707.1 6.1443
2708.5 6.2685
2710 6.4819
2711.4 6.7207
2712.8 6.9216
2714.2 7.0322
2715.6 7.0217
2717.1 6.8884
2718.5 6.6587
2719.9 6.3779
2721.3 6.0972
2722.8 5.8567
2724.2 5.6758
2725.6 5.5491
2727.1 5.4516
2728.5 5.3520
2729.9 5.2229
2731.4 5.0508
2732.8 4.8398
2734.3 4.6081
2735.7 4.3823
2737.1 4.1868
2738.6 4.0395
2740 3.9448
2741.5 3.8955
2742.9 3.8745
2744.4 3.8606
2745.8 3.8350
2747.3 3.7839
2748.8 3.7031
2750.2 3.5947
2751.7 3.4673
2753.1 3.3313
2754.6 3.1977
2756.1 3.0771
2757.5 2.9783
2759 2.9082
2760.5 2.8730
2761.9 2.8750
2763.4 2.9128
2764.9 2.9809
2766.4 3.0698
2767.8 3.1677
2769.3 3.2634
2770.8 3.3476
2772.3 3.4143
2773.8 3.4614
2775.2 3.4900
2776.7 3.5032
2778.2 3.5059
2779.7 3.5037
2781.2 3.5015
2782.7 3.5046
2784.2 3.5163
2785.7 3.5386
2787.2 3.5698
2788.7 3.6072
2790.2 3.6448
2791.7 3.6767
2793.2 3.6987
2794.7 3.7085
2796.2 3.7080
2797.7 3.7007
2799.2 3.6921
2800.7 3.6870
2802.2 3.6890
2803.8 3.6990
2805.3 3.7163
2806.8 3.7385
2808.3 3.7644
2809.8 3.7915
2811.4 3.8188
2812.9 3.8454
2814.4 3.8696
2815.9 3.8901
2817.5 3.9067
2819 3.9189
2820.5 3.9282
2822.1 3.9375
2823.6 3.9499
2825.2 3.9683
2826.7 3.9934
2828.2 4.0249
2829.8 4.0613
2831.3 4.1001
2832.9 4.1389
2834.4 4.1750
2836 4.2082
2837.5 4.2373
2839.1 4.2622
2840.6 4.2839
2842.2 4.3030
2843.7 4.3193
2845.3 4.3340
2846.9 4.3462
2848.4 4.3562
2850 4.3645
2851.6 4.3718
2853.1 4.3804
2854.7 4.3906
2856.3 4.4021
2857.9 4.4119
2859.4 4.4165
2861 4.4128
2862.6 4.3994
2864.2 4.3777
2865.8 4.3516
2867.3 4.3264
2868.9 4.3066
2870.5 4.2952
2872.1 4.2932
2873.7 4.2988
2875.3 4.3103
2876.9 4.3247
2878.5 4.3386
2880.1 4.3486
2881.7 4.3520
2883.3 4.3464
2884.9 4.3320
2886.5 4.3105
2888.1 4.2851
2889.7 4.2598
2891.3 4.2380
2892.9 4.2222
2894.6 4.2114
2896.2 4.2053
2897.8 4.2016
2899.4 4.1992
2901 4.1980
2902.7 4.1977
2904.3 4.1997
2905.9 4.2046
2907.5 4.2114
2909.2 4.2202
2910.8 4.2287
2912.4 4.2363
2914.1 4.2414
2915.7 4.2427
2917.4 4.2390
2919 4.2309
2920.7 4.2190
2922.3 4.2058
2923.9 4.1941
2925.6 4.1860
2927.2 4.1831
2928.9 4.1858
2930.6 4.1933
2932.2 4.2041
2933.9 4.2158
2935.5 4.2266
2937.2 4.2339
2938.9 4.2358
2940.5 4.2322
2942.2 4.2222
2943.9 4.2078
2945.5 4.1924
2947.2 4.1789
2948.9 4.1709
2950.6 4.1694
2952.3 4.1748
2953.9 4.1850
2955.6 4.1982
2957.3 4.2119
2959 4.2263
2960.7 4.2422
2962.4 4.2607
2964.1 4.2839
2965.8 4.3125
2967.5 4.3445
2969.2 4.3782
2970.9 4.4094
2972.6 4.4363
2974.3 4.4558
2976 4.4678
2977.7 4.4722
2979.4 4.4704
2981.1 4.4646
2982.8 4.4575
2984.5 4.4521
2986.3 4.4512
2988 4.4573
2989.7 4.4717
2991.4 4.4944
2993.2 4.5239
2994.9 4.5576
2996.6 4.5913
2998.4 4.6221
3000.1 4.6474
3001.8 4.6675
3003.6 4.6841
3005.3 4.6999
3007 4.7170
3008.8 4.7373
3010.5 4.7605
3012.3 4.7847
3014 4.8086
3015.8 4.8308
3017.6 4.8511
3019.3 4.8694
3021.1 4.8870
3022.8 4.9040
3024.6 4.9214
3026.4 4.9385
3028.1 4.9541
3029.9 4.9673
3031.7 4.9763
3033.4 4.9812
3035.2 4.9817
3037 4.9805
3038.8 4.9800
3040.6 4.9836
3042.3 4.9932
3044.1 5.0105
3045.9 5.0344
3047.7 5.0627
3049.5 5.0928
3051.3 5.1201
3053.1 5.1428
3054.9 5.1594
3056.7 5.1724
3058.5 5.1848
3060.3 5.1999
3062.1 5.2202
3063.9 5.2449
3065.7 5.2720
3067.5 5.2976
3069.4 5.3186
3071.2 5.3332
3073 5.3413
3074.8 5.3447
3076.6 5.3464
3078.5 5.3496
3080.3 5.3579
3082.1 5.3730
3084 5.3962
3085.8 5.4267
3087.6 5.4609
3089.5 5.4958
3091.3 5.5278
3093.2 5.5552
3095 5.5781
3096.9 5.5991
3098.7 5.6218
3100.6 5.6484
3102.4 5.6811
3104.3 5.7180
3106.1 5.7568
3108 5.7949
3109.9 5.8303
3111.7 5.8628
3113.6 5.8943
3115.5 5.9280
3117.4 5.9673
3119.2 6.0141
3121.1 6.0688
3123 6.1306
3124.9 6.1963
3126.8 6.2632
3128.6 6.3286
3130.5 6.3909
3132.4 6.4487
3134.3 6.5019
3136.2 6.5513
3138.1 6.5991
3140 6.6489
3141.9 6.7043
3143.8 6.7680
3145.7 6.8406
3147.6 6.9192
3149.5 6.9995
3151.5 7.0762
3153.4 7.1443
3155.3 7.2026
3157.2 7.2527
3159.1 7.2981
3161.1 7.3435
3163 7.3921
3164.9 7.4460
3166.9 7.5066
3168.8 7.5730
3170.7 7.6448
3172.7 7.7204
3174.6 7.7983
3176.6 7.8755
3178.5 7.9497
3180.5 8.0176
3182.4 8.0791
3184.4 8.1360
3186.3 8.1921
3188.3 8.2524
3190.2 8.3203
3192.2 8.3962
3194.2 8.4773
3196.1 8.5588
3198.1 8.6369
3200.1 8.7099
3202.1 8.7795
3204 8.8484
3206 8.9201
3208 8.9946
3210 9.0696
3212 9.1411
3214 9.2063
3216 9.2646
3218 9.3198
3220 9.3774
3222 9.4419
3224 9.5163
3226 9.5993
3228 9.6872
3230 9.7751
3232 9.8603
3234 9.9416
3236.1 10.0190
3238.1 10.0940
3240.1 10.1650
3242.1 10.2330
3244.2 10.2970
3246.2 10.3580
3248.2 10.4190
3250.3 10.4850
3252.3 10.5590
3254.3 10.6440
3256.4 10.7400
3258.4 10.8410
3260.5 10.9440
3262.5 11.0420
3264.6 11.1340
3266.6 11.2170
3268.7 11.2940
3270.8 11.3680
3272.8 11.4430
3274.9 11.5200
3277 11.5990
3279 11.6790
3281.1 11.7590
3283.2 11.8380
3285.3 11.9160
3287.4 11.9940
3289.4 12.0720
3291.5 12.1470
3293.6 12.2190
3295.7 12.2840
3297.8 12.3420
3299.9 12.3940
3302 12.4420
3304.1 12.4900
3306.2 12.5430
3308.3 12.6050
3310.4 12.6750
3312.6 12.7550
3314.7 12.8390
3316.8 12.9240
3318.9 13.0020
3321 13.0710
3323.2 13.1250
3325.3 13.1650
3327.4 13.1900
3329.6 13.1970
3331.7 13.1850
3333.9 13.1490
3336 13.0850
3338.2 12.9930
3340.3 12.8770
3342.5 12.7470
3344.6 12.6180
3346.8 12.5060
3348.9 12.4270
3351.1 12.3930
3353.3 12.4090
3355.4 12.4710
3357.6 12.5730
3359.8 12.7010
3362 12.8400
3364.1 12.9770
3366.3 13.1000
3368.5 13.2020
3370.7 13.2810
3372.9 13.3440
3375.1 13.3960
3377.3 13.4480
3379.5 13.5060
3381.7 13.5730
3383.9 13.6460
3386.1 13.7210
3388.3 13.7910
3390.6 13.8530
3392.8 13.9080
3395 13.9560
3397.2 14.0010
3399.4 14.0440
3401.7 14.0840
3403.9 14.1230
3406.1 14.1590
3408.4 14.1940
3410.6 14.2300
3412.9 14.2720
3415.1 14.3230
3417.4 14.3870
3419.6 14.4650
3421.9 14.5570
3424.1 14.6580
3426.4 14.7650
3428.7 14.8740
3430.9 14.9780
3433.2 15.0750
3435.5 15.1600
3437.8 15.2330
3440 15.2950
3442.3 15.3500
3444.6 15.3990
3446.9 15.4470
3449.2 15.4910
3451.5 15.5300
3453.8 15.5550
3456.1 15.5590
3458.4 15.5310
3460.7 15.4630
3463 15.3550
3465.3 15.2140
3467.7 15.0520
3470 14.8920
3472.3 14.7550
3474.6 14.6630
3477 14.6310
3479.3 14.6630
3481.6 14.7530
3484 14.8920
3486.3 15.0620
3488.7 15.2510
3491 15.4440
3493.4 15.6360
3495.7 15.8230
3498.1 16.0060
3500.4 16.1890
3502.8 16.3780
3505.2 16.5840
3507.5 16.8150
3509.9 17.0780
3512.3 17.3770
3514.7 17.7130
3517.1 18.0790
3519.5 18.4650
3521.8 18.8590
3524.2 19.2490
3526.6 19.6220
3529 19.9720
3531.4 20.2950
3533.8 20.5900
3536.3 20.8600
3538.7 21.1070
3541.1 21.3370
3543.5 21.5520
3545.9 21.7540
3548.4 21.9450
3550.8 22.1260
3553.2 22.2940
3555.7 22.4510
3558.1 22.5940
3560.5 22.7250
3563 22.8440
3565.4 22.9560
3567.9 23.0660
3570.4 23.1790
3572.8 23.3010
3575.3 23.4360
3577.7 23.5850
3580.2 23.7440
3582.7 23.9080
3585.2 24.0720
3587.6 24.2310
3590.1 24.3810
3592.6 24.5210
3595.1 24.6540
3597.6 24.7810
3600.1 24.9050
3602.6 25.0270
3605.1 25.1460
3607.6 25.2640
3610.1 25.3780
3612.7 25.4880
3615.2 25.5940
3617.7 25.6980
3620.2 25.7990
3622.7 25.8970
3625.3 25.9930
3627.8 26.0860
3630.4 26.1780
3632.9 26.2710
3635.5 26.3660
3638 26.4650
3640.6 26.5660
3643.1 26.6670
3645.7 26.7670
3648.2 26.8620
3650.8 26.9530
3653.4 27.0400
3656 27.1240
3658.5 27.2050
3661.1 27.2850
3663.7 27.3630
3666.3 27.4390
3668.9 27.5140
3671.5 27.5880
3674.1 27.6620
3676.7 27.7360
3679.3 27.8110
3681.9 27.8880
3684.5 27.9660
3687.2 28.0450
3689.8 28.1230
3692.4 28.2000
3695 28.2750
3697.7 28.3490
3700.3 28.4210
3703 28.4900
3705.6 28.5580
3708.3 28.6230
3710.9 28.6870
3713.6 28.7490
3716.2 28.8120
3718.9 28.8740
3721.6 28.9360
3724.2 28.9940
3726.9 29.0470
3729.6 29.0910
3732.3 29.1250
3735 29.1510
3737.7 29.1700
3740.4 29.1850
3743.1 29.1980
3745.8 29.2120
3748.5 29.2260
3751.2 29.2410
3753.9 29.2550
3756.6 29.2650
3759.4 29.2680
3762.1 29.2600
3764.8 29.2390
3767.6 29.2030
3770.3 29.1520
3773 29.0860
3775.8 29.0040
3778.5 28.9040
3781.3 28.7780
3784.1 28.6200
3786.8 28.4210
3789.6 28.1770
3792.4 27.8890
3795.1 27.5640
3797.9 27.2140
3800.7 26.8520
3803.5 26.4930
3806.3 26.1480
3809.1 25.8260
3811.9 25.5280
3814.7 25.2520
3817.5 24.9910
3820.3 24.7390
3823.1 24.4860
3825.9 24.2290
3828.8 23.9670
3831.6 23.7080
3834.4 23.4570
3837.3 23.2250
3840.1 23.0170
3843 22.8350
3845.8 22.6760
3848.7 22.5340
3851.5 22.4060
3854.4 22.2850
3857.3 22.1740
3860.1 22.0720
3863 21.9840
3865.9 21.9100
3868.8 21.8530
3871.7 21.8100
3874.6 21.7780
3877.5 21.7520
3880.4 21.7260
3883.3 21.6980
3886.2 21.6600
3889.1 21.6130
3892 21.5550
3894.9 21.4850
3897.9 21.4050
3900.8 21.3140
3903.7 21.2110
3906.7 21.0950
3909.6 20.9660
3912.6 20.8260
3915.5 20.6770
3918.5 20.5240
3921.4 20.3690
3924.4 20.2080
3927.4 20.0300
3930.4 19.8160
3933.3 19.5420
3936.3 19.1920
3939.3 18.7560
3942.3 18.2410
3945.3 17.6680
3948.3 17.0690
3951.3 16.4780
3954.4 15.9260
3957.4 15.4360
3960.4 15.0190
3963.4 14.6780
3966.5 14.4120
3969.5 14.2150
3972.5 14.0880
3975.6 14.0360
3978.6 14.0650
3981.7 14.1860
3984.7 14.4070
3987.8 14.7330
3990.9 15.1610
3994 15.6840
3997 16.2880
4000.1 16.9550
4003.2 17.6640
4006.3 18.3940
4009.4 19.1250
4012.5 19.8370
4015.6 20.5170
4018.7 21.1600
4021.8 21.7660
4025 22.3420
4028.1 22.8990
4031.2 23.4480
4034.4 23.9940
4037.5 24.5330
4040.6 25.0580
4043.8 25.5520
4047 26.0020
4050.1 26.3970
4053.3 26.7340
4056.5 27.0130
4059.6 27.2430
4062.8 27.4330
4066 27.5930
4069.2 27.7300
4072.4 27.8490
4075.6 27.9530
4078.8 28.0470
4082 28.1320
4085.2 28.2090
4088.4 28.2780
4091.7 28.3370
4094.9 28.3840
4098.1 28.4170
4101.4 28.4370
4104.6 28.4440
4107.9 28.4440
4111.1 28.4370
4114.4 28.4270
4117.7 28.4140
4120.9 28.3990
4124.2 28.3800
4127.5 28.3570
4130.8 28.3310
4134.1 28.3030
4137.4 28.2710
4140.7 28.2360
4144 28.1960
4147.3 28.1510
4150.6 28.1000
4154 28.0430
4157.3 27.9820
4160.6 27.9190
4164 27.8530
4167.3 27.7860
4170.7 27.7160
4174 27.6410
4177.4 27.5580
4180.8 27.4670
4184.1 27.3680
4187.5 27.2620
4190.9 27.1500
4194.3 27.0290
4197.7 26.8970
4201.1 26.7490
4204.5 26.5780
4207.9 26.3810
4211.3 26.1590
4214.8 25.9170
4218.2 25.6650
4221.6 25.4150
4225.1 25.1790
4228.5 24.9680
4232 24.7850
4235.4 24.6300
4238.9 24.4940
4242.4 24.3610
4245.8 24.2150
4249.3 24.0370
4252.8 23.8220
4256.3 23.5720
4259.8 23.3030
4263.3 23.0440
4266.8 22.8210
4270.3 22.6560
4273.8 22.5610
4277.4 22.5310
4280.9 22.5520
4284.4 22.6020
4288 22.6600
4291.5 22.7120
4295.1 22.7490
4298.6 22.7670
4302.2 22.7690
4305.8 22.7560
4309.4 22.7330
4312.9 22.6990
4316.5 22.6560
4320.1 22.6040
4323.7 22.5450
4327.3 22.4810
4331 22.4150
4334.6 22.3480
4338.2 22.2830
4341.8 22.2190
4345.5 22.1540
4349.1 22.0870
4352.8 22.0150
4356.4 21.9390
4360.1 21.8600
4363.8 21.7790
4367.4 21.6990
4371.1 21.6180
4374.8 21.5350
4378.5 21.4490
4382.2 21.3590
4385.9 21.2640
4389.6 21.1660
4393.4 21.0680
4397.1 20.9720
4400.8 20.8800
4404.5 20.7910
4408.3 20.7030
4412 20.6170
4415.8 20.5310
4419.6 20.4450
4423.3 20.3600
4427.1 20.2760
4430.9 20.1930
4434.7 20.1120
4438.5 20.0300
4442.3 19.9480
4446.1 19.8630
4449.9 19.7750
4453.7 19.6840
4457.6 19.5910
4461.4 19.4990
4465.2 19.4090
4469.1 19.3250
4473 19.2490
4476.8 19.1800
4480.7 19.1180
4484.6 19.0640
4488.4 19.0160
4492.3 18.9760
4496.2 18.9440
4500.1 18.9220
4504 18.9110
4508 18.9110
4511.9 18.9190
4515.8 18.9350
4519.7 18.9530
4523.7 18.9730
4527.6 18.9910
4531.6 19.0070
4535.6 19.0210
4539.5 19.0340
4543.5 19.0480
4547.5 19.0640
4551.5 19.0830
4555.5 19.1070
4559.5 19.1340
4563.5 19.1630
4567.5 19.1920
4571.6 19.2160
4575.6 19.2350
4579.6 19.2460
4583.7 19.2490
4587.7 19.2430
4591.8 19.2260
4595.9 19.2000
4600 19.1610
4604 19.1080
4608.1 19.0420
4612.2 18.9610
4616.3 18.8670
4620.5 18.7590
4624.6 18.6370
4628.7 18.5000
4632.8 18.3510
4637 18.1920
4641.1 18.0290
4645.3 17.8710
4649.5 17.7220
4653.6 17.5870
4657.8 17.4680
4662 17.3630
4666.2 17.2740
4670.4 17.2010
4674.6 17.1490
4678.8 17.1220
4683.1 17.1260
4687.3 17.1630
4691.5 17.2300
4695.8 17.3230
4700 17.4340
4704.3 17.5550
4708.6 17.6750
4712.9 17.7880
4717.2 17.8870
4721.5 17.9690
4725.8 18.0360
4730.1 18.0900
4734.4 18.1390
4738.7 18.1900
4743.1 18.2500
4747.4 18.3200
4751.7 18.4000
4756.1 18.4850
4760.5 18.5670
4764.8 18.6410
4769.2 18.7040
4773.6 18.7580
4778 18.8120
4782.4 18.8710
4786.8 18.9430
4791.3 19.0300
4795.7 19.1310
4800.1 19.2400
4804.6 19.3500
4809 19.4530
4813.5 19.5420
4818 19.6120
4822.5 19.6610
4827 19.6900
4831.5 19.7020
4836 19.7010
4840.5 19.6910
4845 19.6770
4849.5 19.6570
4854.1 19.6310
4858.6 19.5940
4863.2 19.5450
4867.8 19.4780
4872.3 19.3910
4876.9 19.2840
4881.5 19.1570
4886.1 19.0110
4890.7 18.8510
4895.3 18.6770
4900 18.4960
4904.6 18.3120
4909.2 18.1310
4913.9 17.9610
4918.6 17.8090
4923.2 17.6780
4927.9 17.5680
4932.6 17.4740
4937.3 17.3850
4942 17.2930
4946.7 17.1860
4951.4 17.0600
4956.2 16.9170
4960.9 16.7620
4965.7 16.6070
4970.4 16.4630
4975.2 16.3380
4980 16.2350
4984.8 16.1540
4989.6 16.0910
4994.4 16.0410
4999.2 15.9970
5004 15.9590
5008.8 15.9260
5013.7 15.8990
5018.5 15.8790
5023.4 15.8670
5028.3 15.8620
5033.2 15.8590
5038 15.8570
5043 15.8500
5047.9 15.8380
5052.8 15.8190
5057.7 15.7940
5062.7 15.7670
5067.6 15.7370
5072.6 15.7100
5077.5 15.6880
5082.5 15.6720
5087.5 15.6660
5092.5 15.6700
5097.5 15.6830
5102.5 15.7020
5107.5 15.7220
5112.6 15.7360
5117.6 15.7380
5122.7 15.7230
5127.7 15.6940
5132.8 15.6520
5137.9 15.6070
5143 15.5660
5148.1 15.5360
5153.2 15.5190
5158.4 15.5140
5163.5 15.5160
5168.6 15.5190
5173.8 15.5140
5179 15.4940
5184.2 15.4550
5189.3 15.3930
5194.5 15.3110
5199.8 15.2110
5205 15.0980
5210.2 14.9740
5215.4 14.8420
5220.7 14.6990
5226 14.5450
5231.2 14.3800
5236.5 14.2040
5241.8 14.0210
5247.1 13.8340
5252.4 13.6460
5257.8 13.4550
5263.1 13.2620
5268.4 13.0670
5273.8 12.8730
5279.2 12.6880
5284.6 12.5180
5290 12.3730
5295.4 12.2560
5300.8 12.1660
5306.2 12.0940
5311.6 12.0290
5317.1 11.9570
5322.5 11.8680
5328 11.7600
5333.5 11.6370
5339 11.5120
5344.5 11.4020
5350 11.3210
5355.5 11.2810
5361.1 11.2870
5366.6 11.3330
5372.2 11.4090
5377.8 11.5020
5383.3 11.5960
5388.9 11.6740
5394.5 11.7270
5400.2 11.7500
5405.8 11.7480
5411.4 11.7300
5417.1 11.7100
5422.8 11.6920
5428.4 11.6750
5434.1 11.6450
5439.8 11.5850
5445.5 11.4800
5451.3 11.3260
5457 11.1300
5462.8 10.9110
5468.5 10.6890
5474.3 10.4820
5480.1 10.2960
5485.9 10.1290
5491.7 9.9721
5497.5 9.8108
5503.3 9.6289
5509.2 9.4087
5515.1 9.1321
5520.9 8.7829
5526.8 8.3513
5532.7 7.8403
5538.6 7.2705
5544.5 6.6819
5550.5 6.1306
5556.4 5.6785
5562.4 5.3808
5568.4 5.2751
5574.4 5.3706
5580.4 5.6462
5586.4 6.0561
5592.4 6.5366
5598.4 7.0205
5604.5 7.4494
5610.6 7.7854
5616.6 8.0149
5622.7 8.1472
5628.8 8.2102
5634.9 8.2378
5641.1 8.2607
5647.2 8.2971
5653.4 8.3508
5659.6 8.4121
5665.7 8.4636
5671.9 8.4870
5678.2 8.4702
5684.4 8.4106
5690.6 8.3149
5696.9 8.1965
5703.1 8.0713
5709.4 7.9521
5715.7 7.8435
5722 7.7407
5728.3 7.6330
5734.7 7.5088
5741 7.3628
5747.4 7.2019
5753.8 7.0459
5760.2 6.9182
5766.6 6.8362
5773 6.8008
5779.4 6.7942
5785.9 6.7842
5792.3 6.7392
5798.8 6.6389
5805.3 6.4844
5811.8 6.2978
5818.4 6.1089
5824.9 5.9424
5831.4 5.8059
5838 5.6882
5844.6 5.5637
5851.2 5.4072
5857.8 5.2053
5864.4 4.9636
5871.1 4.7036
5877.7 4.4536
5884.4 4.2366
5891.1 4.0613
5897.8 3.9202
5904.5 3.7952
5911.2 3.6677
5918 3.5266
5924.7 3.3733
5931.5 3.2183
5938.3 3.0771
5945.1 2.9607
5952 2.8730
5958.8 2.8108
5965.7 2.7651
5972.5 2.7283
5979.4 2.6948
5986.3 2.6621
5993.2 2.6282
6000.2 2.5906
6007.1 2.5452
6014.1 2.4878
6021.1 2.4163
6028.1 2.3337
6035.1 2.2488
6042.1 2.1733
6049.2 2.1179
6056.3 2.0891
6063.3 2.0864
6070.4 2.1025
6077.6 2.1257
6084.7 2.1445
6091.8 2.1528
6099 2.1494
6106.2 2.1389
6113.4 2.1291
6120.6 2.1279
6127.8 2.1399
6135.1 2.1655
6142.4 2.2029
6149.6 2.2480
6157 2.2974
6164.3 2.3501
6171.6 2.4077
6179 2.4729
6186.3 2.5486
6193.7 2.6372
6201.1 2.7385
6208.6 2.8511
6216 2.9726
6223.5 3.1001
6231 3.2302
6238.5 3.3599
6246 3.4851
6253.5 3.6040
6261.1 3.7153
6268.6 3.8208
6276.2 3.9238
6283.8 4.0288
6291.4 4.1365
6299.1 4.2463
6306.8 4.3550
6314.4 4.4602
6322.1 4.5605
6329.9 4.6616
6337.6 4.7707
6345.4 4.8933
6353.1 5.0293
6360.9 5.1687
6368.7 5.2947
6376.6 5.3894
6384.4 5.4429
6392.3 5.4609
6400.2 5.4636
6408.1 5.4765
6416 5.5190
6424 5.5932
6432 5.6780
6439.9 5.7368
6448 5.7307
6456 5.6369
6464 5.4580
6472.1 5.2231
6480.2 4.9770
6488.3 4.7656
6496.4 4.6177
6504.6 4.5383
6512.8 4.5078
6520.9 4.4932
6529.2 4.4612
6537.4 4.3906
6545.6 4.2788
6553.9 4.1389
6562.2 3.9929
6570.5 3.8623
6578.9 3.7576
6587.2 3.6772
6595.6 3.6111
6604 3.5466
6612.4 3.4773
6620.9 3.4043
6629.4 3.3369
6637.8 3.2842
6646.4 3.2510
6654.9 3.2346
6663.4 3.2261
6672 3.2151
6680.6 3.1943
6689.2 3.1645
6697.9 3.1311
6706.5 3.1016
6715.2 3.0815
6723.9 3.0710
6732.7 3.0657
6741.4 3.0586
6750.2 3.0447
6759 3.0244
6767.8 3.0024
6776.7 2.9866
6785.5 2.9822
6794.4 2.9900
6803.4 3.0049
6812.3 3.0190
6821.3 3.0242
6830.2 3.0176
6839.3 3.0032
6848.3 2.9905
6857.3 2.9893
6866.4 3.0073
6875.5 3.0454
6884.7 3.0981
6893.8 3.1548
6903 3.2036
6912.2 3.2363
6921.4 3.2502
6930.7 3.2490
6940 3.2412
6949.3 3.2378
6958.6 3.2485
6967.9 3.2781
6977.3 3.3252
6986.7 3.3833
6996.2 3.4436
7005.6 3.4988
7015.1 3.5459
7024.6 3.5879
7034.1 3.6306
7043.7 3.6807
7053.3 3.7405
7062.9 3.8059
7072.5 3.8682
7082.2 3.9133
7091.9 3.9304
7101.6 3.9126
7111.3 3.8618
7121.1 3.7869
7130.9 3.7036
7140.7 3.6284
7150.6 3.5764
7160.4 3.5569
7170.3 3.5732
7180.3 3.6230
7190.2 3.7007
7200.2 3.7991
7210.2 3.9116
7220.3 4.0317
7230.3 4.1567
7240.4 4.2829
7250.6 4.4104
7260.7 4.5386
7270.9 4.6699
7281.1 4.8064
7291.4 4.9492
7301.6 5.0984
7311.9 5.2541
7322.2 5.4143
7332.6 5.5766
7343 5.7390
7353.4 5.8979
7363.9 6.0498
7374.3 6.1894
7384.8 6.3122
7395.4 6.4143
7405.9 6.4946
7416.5 6.5539
7427.2 6.5969
7437.8 6.6301
7448.5 6.6601
7459.2 6.6929
7470 6.7312
7480.7 6.7744
7491.6 6.8188
7502.4 6.8586
7513.3 6.8877
7524.2 6.9013
7535.1 6.8996
7546.1 6.8860
7557.1 6.8669
7568.1 6.8508
7579.2 6.8432
7590.3 6.8491
7601.4 6.8681
7612.6 6.8979
7623.8 6.9348
7635 6.9741
7646.2 7.0137
7657.5 7.0505
7668.9 7.0837
7680.2 7.1120
7691.6 7.1338
7703.1 7.1477
7714.5 7.1523
7726 7.1472
7737.5 7.1330
7749.1 7.1113
7760.7 7.0845
7772.3 7.0559
7784 7.0276
7795.7 7.0019
7807.5 6.9800
7819.2 6.9609
7831 6.9429
7842.9 6.9243
7854.8 6.9040
7866.7 6.8840
7878.6 6.8679
7890.6 6.8606
7902.7 6.8662
7914.7 6.8855
7926.8 6.9155
7939 6.9504
7951.2 6.9829
7963.4 7.0063
7975.6 7.0185
7987.9 7.0210
8000.2 7.0183
8012.6 7.0161
8025 7.0188
8037.4 7.0290
8049.9 7.0478
8062.4 7.0757
8075 7.1118
8087.6 7.1553
8100.2 7.2036
8112.9 7.2524
8125.6 7.2961
8138.4 7.3279
8151.2 7.3430
8164 7.3388
8176.9 7.3149
8189.8 7.2727
8202.8 7.2126
8215.8 7.1345
8228.8 7.0378
8241.9 6.9223
8255 6.7900
8268.2 6.6460
8281.4 6.4978
8294.6 6.3547
8307.9 6.2241
8321.3 6.1116
8334.7 6.0195
8348.1 5.9482
8361.5 5.8945
8375 5.8542
8388.6 5.8227
8402.2 5.7954
8415.8 5.7705
8429.5 5.7480
8443.2 5.7300
8457 5.7180
8470.8 5.7121
8484.7 5.7095
8498.6 5.7029
8512.6 5.6843
8526.6 5.6472
8540.6 5.5884
8554.7 5.5107
8568.8 5.4211
8583 5.3308
8597.3 5.2510
8611.6 5.1902
8625.9 5.1528
8640.3 5.1374
8654.7 5.1372
8669.2 5.1418
8683.7 5.1404
8698.2 5.1247
8712.9 5.0920
8727.5 5.0432
8742.2 4.9831
8757 4.9182
8771.8 4.8530
8786.7 4.7893
8801.6 4.7256
8816.6 4.6589
8831.6 4.5859
8846.7 4.5051
8861.8 4.4175
8877 4.3264
8892.2 4.2356
8907.5 4.1487
8922.8 4.0664
8938.2 3.9885
8953.6 3.9141
8969.1 3.8435
8984.7 3.7788
9000.3 3.7241
9015.9 3.6838
9031.6 3.6611
9047.4 3.6575
9063.2 3.6697
9079.1 3.6929
9095 3.7209
9111 3.7478
9127 3.7688
9143.1 3.7820
9159.3 3.7873
9175.5 3.7883
9191.8 3.7881
9208.1 3.7903
9224.5 3.7959
9240.9 3.8042
9257.4 3.8127
9274 3.8171
9290.6 3.8157
9307.3 3.8069
9324 3.7917
9340.8 3.7715
9357.7 3.7473
9374.6 3.7197
9391.6 3.6870
9408.6 3.6487
9425.7 3.6038
9442.9 3.5539
9460.1 3.5022
9477.4 3.4529
9494.8 3.4099
9512.2 3.3765
9529.7 3.3523
9547.2 3.3359
9564.9 3.3232
9582.5 3.3113
9600.3 3.2974
9618.1 3.2805
9636 3.2610
9653.9 3.2388
9671.9 3.2129
9690 3.1826
9708.2 3.1460
9726.4 3.1018
9744.7 3.0500
9763 2.9924
9781.4 2.9338
9799.9 2.8789
9818.5 2.8332
9837.1 2.8010
9855.8 2.7837
9874.6 2.7788
9893.4 2.7820
9912.3 2.7871
9931.3 2.7878
9950.4 2.7812
9969.5 2.7656
9988.7 2.7427
10008 2.7158
10027 2.6882
10047 2.6628
10066 2.6426
10086 2.6284
10106 2.6211
10125 2.6216
10145 2.6301
10165 2.6457
10185 2.6670
10205 2.6902
10225 2.7112
10245 2.7270
10266 2.7363
10286 2.7405
10306 2.7446
10327 2.7537
10348 2.7712
10368 2.7964
10389 2.8247
10410 2.8498
10431 2.8657
10452 2.8699
10473 2.8633
10494 2.8496
10516 2.8335
10537 2.8162
10558 2.7978
10580 2.7759
10602 2.7497
10623 2.7197
10645 2.6894
10667 2.6633
10689 2.6453
10711 2.6365
10733 2.6340
10755 2.6323
10778 2.6252
10800 2.6086
10823 2.5832
10846 2.5537
10868 2.5290
10891 2.5173
10914 2.5239
10937 2.5508
10960 2.5940
10983 2.6479
11007 2.7082
11030 2.7712
11054 2.8367
11077 2.9060
11101 2.9800
11125 3.0588
11149 3.1384
11173 3.2134
11197 3.2754
11221 3.3174
11245 3.3337
11270 3.3225
11294 3.2861
11319 3.2317
11344 3.1702
11369 3.1145
11394 3.0784
11419 3.0732
11444 3.1052
11469 3.1731
11495 3.2681
11520 3.3747
11546 3.4744
11572 3.5505
11598 3.5923
11624 3.5979
11650 3.5735
11676 3.5303
11702 3.4809
11729 3.4348
11755 3.3965
11782 3.3642
11809 3.3354
11836 3.3064
11863 3.2761
11890 3.2451
11918 3.2151
11945 3.1855
11973 3.1548
12000 3.1186
12028 3.0732
12056 3.0176
12084 2.9531
12113 2.8833
12141 2.8127
12169 2.7454
12198 2.6836
12227 2.6291
12256 2.5825
12285 2.5449
12314 2.5173
12343 2.5005
12373 2.4939
12402 2.4956
12432 2.5019
12462 2.5083
12492 2.5083
12522 2.4978
12552 2.4758
12583 2.4456
12614 2.4153
12644 2.3940
12675 2.3916
12706 2.4114
12737 2.4504
12769 2.5000
12800 2.5486
12832 2.5852
12864 2.6035
12896 2.6025
12928 2.5867
12960 2.5632
12993 2.5393
13026 2.5198
13058 2.5056
13091 2.4951
13124 2.4844
13158 2.4690
13191 2.4460
13225 2.4153
13259 2.3789
13293 2.3411
13327 2.3076
13361 2.2817
13396 2.2642
13430 2.2519
13465 2.2400
13500 2.2234
13536 2.1990
13571 2.1687
13607 2.1370
13643 2.1084
13679 2.0845
13715 2.0630
13751 2.0381
13788 2.0049
13824 1.9607
13861 1.9082
13899 1.8542
13936 1.8079
13973 1.7747
14011 1.7578
14049 1.7549
14087 1.7617
14126 1.7722
14164 1.7808
14203 1.7827
14242 1.7766
14281 1.7624
14321 1.7449
14361 1.7300
14400 1.7258
14441 1.7390
14481 1.7725
14521 1.8247
14562 1.8884
14603 1.9531
14645 2.0081
14686 2.0437
14728 2.0559
14770 2.0461
14812 2.0220
14854 1.9927
14897 1.9673
14940 1.9507
14983 1.9421
