# Soil optical properties : Brown to dark brown gravelly fine sandy loam
# Colums : Wavelength(nm) Reflectance(%) Transmitance(%)
#
300 2.6909
400 2.6909
401 2.7086
402 2.8724
403 2.8861
404 2.7594
405 2.8842
406 2.8900
407 2.7654
408 3.1052
409 3.2414
410 3.2471
411 3.2414
412 3.2356
413 3.2738
414 3.2804
415 3.1545
416 3.4495
417 3.4495
418 3.4406
419 3.6039
420 3.4663
421 3.3378
422 3.6864
423 3.8228
424 4.1245
425 3.9566
426 3.8276
427 3.9959
428 4.1259
429 3.9934
430 4.1642
431 4.2947
432 4.3340
433 4.3341
434 4.4640
435 4.5048
436 4.6319
437 4.6302
438 4.4992
439 4.8297
440 4.8337
441 4.8297
442 4.6265
443 4.9568
444 5.1246
445 5.1224
446 4.9886
447 5.1544
448 5.1630
449 5.2907
450 5.4430
451 5.3120
452 5.3077
453 5.3105
454 5.4338
455 5.3048
456 5.7597
457 5.7655
458 5.7949
459 5.6209
460 5.8011
461 5.9601
462 5.7888
463 5.8368
464 5.8324
465 6.1183
466 6.1158
467 6.1109
468 5.9488
469 6.1109
470 5.9812
471 5.9836
472 6.1134
473 6.1183
474 6.1109
475 6.1134
476 6.2676
477 6.2623
478 6.2596
479 6.5757
480 6.7150
481 6.7150
482 6.6993
483 6.7024
484 6.7056
485 6.6837
486 6.6805
487 6.9626
488 6.9592
489 6.8131
490 6.9558
491 7.0458
492 7.2007
493 6.9728
494 7.4154
495 7.4078
496 7.3814
497 7.2398
498 7.5154
499 7.3519
500 7.3519
501 7.3555
502 7.3519
503 7.4486
504 7.4523
505 7.5668
506 7.6301
507 7.6028
508 7.7364
509 7.7364
510 8.1680
511 8.1723
512 7.9030
513 8.1334
514 8.1377
515 8.3030
516 8.2942
517 8.1810
518 8.2525
519 8.2525
520 8.4294
521 8.4069
522 8.2354
523 8.3567
524 8.4874
525 8.4829
526 8.3711
527 8.4829
528 8.6035
529 8.6035
530 8.6126
531 8.8725
532 9.0075
533 9.0465
534 9.0318
535 9.0027
536 8.9978
537 9.0172
538 9.0075
539 9.1478
540 9.1627
541 9.1379
542 9.1429
543 9.2786
544 9.2585
545 9.2286
546 9.4735
547 9.6141
548 9.6141
549 9.7129
550 9.6606
551 9.7479
552 9.8396
553 9.8344
554 9.8396
555 10.0857
556 10.1075
557 10.2364
558 10.2530
559 10.0117
560 10.1054
561 10.3248
562 10.7458
563 10.5367
564 10.8470
565 10.9727
566 10.6625
567 10.9853
568 11.2242
569 10.8779
570 10.8660
571 10.9549
572 11.1102
573 11.2093
574 11.2912
575 11.6564
576 11.6837
577 11.3422
578 11.6701
579 11.5894
580 11.6924
581 11.4196
582 11.3937
583 11.5618
584 11.4066
585 11.9026
586 11.9167
587 11.9964
588 11.7312
589 11.7111
590 11.6977
591 11.9837
592 12.1063
593 12.0647
594 12.0371
595 11.9494
596 12.0994
597 12.3830
598 12.1381
599 12.0829
600 12.4710
601 12.4131
602 12.2911
603 12.2635
604 12.3543
605 12.6379
606 12.6307
607 12.7553
608 12.4515
609 12.4654
610 12.4654
611 12.9394
612 12.7724
613 13.0234
614 13.0234
615 12.7868
616 13.0898
617 13.4083
618 13.3075
619 13.4639
620 13.4639
621 13.5657
622 13.2669
623 13.3923
624 13.3847
625 13.6910
626 13.6431
627 14.0066
628 14.0229
629 13.6663
630 13.7920
631 14.0831
632 13.7764
633 14.1078
634 14.2417
635 14.5016
636 14.5356
637 14.2500
638 14.2256
639 14.1368
640 14.3223
641 14.2981
642 14.0888
643 14.3630
644 14.4799
645 14.3142
646 14.4552
647 14.4552
648 14.7925
649 14.6215
650 15.0601
651 14.7551
652 14.7551
653 14.7551
654 14.7719
655 14.7132
656 15.0621
657 15.3114
658 15.0737
659 15.2648
660 15.2911
661 15.3262
662 15.2823
663 15.2073
664 15.3411
665 15.4360
666 15.3661
667 15.3922
668 15.3574
669 15.6671
670 15.7561
671 15.6853
672 15.7302
673 15.7740
674 15.6408
675 15.7114
676 15.8622
677 15.7793
678 16.0868
679 16.0684
680 16.2436
681 16.1258
682 16.4426
683 16.4898
684 16.4898
685 16.4614
686 16.4332
687 16.4824
688 16.3490
689 16.3305
690 16.3397
691 16.5200
692 16.7016
693 16.6920
694 16.7879
695 16.6545
696 16.5207
697 16.5647
698 16.5524
699 16.9098
700 17.0773
701 17.3115
702 17.1725
703 16.9098
704 17.1343
705 17.1248
706 17.2848
707 17.4628
708 17.4628
709 17.5453
710 17.4359
711 17.3800
712 17.5579
713 17.5090
714 17.4993
715 17.5622
716 17.7947
717 17.9059
718 17.8244
719 17.8083
720 17.9658
721 17.9059
722 18.0170
723 18.0170
724 18.0270
725 18.0470
726 18.4415
727 18.2088
728 18.2839
729 18.2537
730 18.3188
731 18.4598
732 18.2840
733 18.4247
734 18.5702
735 18.4450
736 18.4450
737 18.5862
738 18.5658
739 18.5658
740 18.5760
741 18.7278
742 18.9385
743 18.9699
744 18.9281
745 18.8449
746 18.8139
747 18.9651
748 19.1063
749 19.2054
750 19.0748
751 19.1379
752 19.1379
753 19.1273
754 19.0818
755 19.3256
756 19.2478
757 19.5660
758 19.3581
759 19.3581
760 19.3581
761 19.3898
762 19.4779
763 19.5763
764 19.5976
765 19.5870
766 19.6852
767 19.3890
768 19.6852
769 19.9135
770 19.9243
771 19.9026
772 19.8486
773 19.8378
774 20.0220
775 20.0658
776 20.0658
777 20.0658
778 20.1305
779 20.1415
780 20.3803
781 20.3914
782 20.2278
783 20.3803
784 20.3803
785 20.5295
786 20.7046
787 20.4095
788 20.3767
789 20.4518
790 20.3549
791 20.3876
792 20.3985
793 20.6933
794 20.5066
795 20.4844
796 20.4189
797 20.5814
798 20.9197
799 20.9252
800 21.2814
804 21.1264
808 21.4763
812 21.4763
816 21.6941
820 21.9347
824 21.9022
828 22.0001
832 21.9890
836 22.1539
840 22.3151
844 22.3604
848 22.5319
852 22.3762
856 22.4287
860 22.6335
864 22.5884
868 22.6291
872 22.7140
876 22.8088
880 22.9879
884 23.2234
888 23.1342
892 23.2288
896 23.3258
900 23.4632
904 23.5573
908 23.6860
912 23.6083
916 23.9432
920 24.0245
924 24.0404
928 24.0404
932 24.2812
936 24.2618
940 24.2974
944 24.6152
948 24.7082
952 24.7203
956 24.7887
960 24.9424
964 24.7690
968 25.1518
972 25.1506
976 25.0895
980 25.1446
984 24.9922
988 25.3933
992 25.4920
996 25.6078
1000 25.7988
1004 25.8957
1008 25.7236
1012 26.0456
1016 26.3978
1020 26.1750
1024 26.0598
1028 26.4310
1032 26.2695
1036 26.5453
1040 26.5621
1044 26.9974
1048 27.4203
1052 27.4284
1056 27.4631
1060 27.1058
1064 27.3000
1068 27.5301
1072 27.6379
1076 27.1718
1080 27.1545
1084 27.7503
1088 28.0451
1092 27.9903
1096 28.3527
1100 28.1961
1104 28.0505
1108 28.4288
1112 28.3871
1116 28.4734
1120 28.4160
1124 28.8579
1128 28.8297
1132 28.6195
1136 28.8179
1140 28.9727
1144 28.7032
1148 28.9880
1152 28.7920
1156 28.8616
1160 29.0832
1164 29.0822
1168 29.2749
1172 29.4953
1176 29.5945
1180 29.7624
1184 29.7767
1188 30.0275
1192 30.0856
1196 30.0033
1200 30.1439
1204 30.3125
1208 30.1185
1212 30.1369
1216 30.4366
1220 30.4303
1224 30.4533
1228 30.2522
1232 30.4176
1236 30.4986
1240 30.6775
1244 30.6476
1248 30.6326
1252 31.1778
1256 31.3487
1260 31.2046
1264 31.3679
1268 31.6743
1272 31.7868
1276 31.9144
1280 31.7878
1284 31.9362
1288 31.9217
1292 31.7111
1296 31.9706
1300 31.9395
1304 32.1278
1308 32.3418
1312 32.4514
1316 32.3418
1320 32.4198
1324 32.4356
1328 32.1904
1332 32.1438
1336 32.1995
1340 32.0979
1344 32.4304
1348 32.3703
1352 32.3557
1356 32.5982
1360 32.5854
1364 32.5500
1368 32.4900
1372 32.5217
1376 32.4367
1380 32.4045
1384 32.1805
1388 32.1704
1392 32.3256
1396 32.1501
1400 32.0397
1404 32.1660
1408 31.9609
1412 31.8831
1416 31.8215
1420 32.0846
1424 32.0695
1428 31.9454
1432 31.8422
1436 32.2260
1440 32.2260
1444 32.2251
1448 32.0381
1452 31.9146
1456 32.1151
1460 32.2710
1464 32.3811
1468 32.4583
1472 32.4900
1476 32.4900
1480 32.7015
1484 32.6536
1488 32.9515
1492 32.9838
1496 33.1254
1500 32.6865
1504 32.8483
1508 32.8922
1512 32.9238
1516 33.0308
1520 33.0071
1524 33.1358
1528 33.5349
1532 33.8456
1536 34.0910
1540 33.6253
1544 33.6738
1548 33.7225
1552 33.6990
1556 33.7152
1560 33.7062
1564 33.7642
1568 33.7318
1572 33.7156
1576 34.0349
1580 34.1004
1584 34.0513
1588 33.9774
1592 33.7805
1596 33.5931
1600 33.6027
1604 33.8310
1608 33.8885
1612 34.1231
1616 33.9782
1620 34.1723
1624 34.0270
1628 34.2692
1632 34.3681
1636 34.6136
1640 34.3681
1644 34.5407
1648 34.1247
1652 34.1900
1656 34.2391
1660 34.1798
1664 34.3361
1668 34.2870
1672 34.3819
1676 34.3197
1680 34.3761
1684 34.4160
1688 34.4721
1692 34.4558
1696 34.3092
1700 34.2445
1704 34.2930
1708 34.3092
1712 34.3416
1716 34.5706
1720 34.5738
1724 34.4343
1728 34.4677
1732 34.4089
1736 34.5598
1740 34.7431
1744 34.7762
1748 34.6321
1752 35.1657
1756 34.9162
1760 34.5535
1764 34.6983
1768 34.5991
1772 34.5332
1776 34.4231
1780 34.5004
1784 34.5347
1788 34.5020
1792 34.3092
1796 34.4023
1800 34.4512
1804 34.5020
1808 34.6721
1812 34.8315
1816 34.7214
1820 34.7874
1824 34.7488
1828 34.8759
1832 34.8764
1836 34.6971
1840 34.6469
1844 34.7257
1848 34.8260
1852 34.6066
1856 34.5949
1860 34.4775
1864 34.5651
1868 34.0256
1872 33.8039
1876 33.3431
1880 32.8921
1884 32.3373
1888 31.8108
1892 30.9052
1896 30.0827
1900 29.4729
1904 29.0300
1908 28.8496
1912 28.3638
1916 28.1495
1920 28.4183
1924 28.3502
1928 28.4143
1932 28.5972
1936 28.6967
1940 29.1713
1944 29.1296
1948 29.4277
1952 29.5040
1956 29.5940
1960 29.7459
1964 29.8694
1968 29.8246
1972 30.1618
1976 30.5353
1980 30.3588
1984 30.6389
1988 30.7274
1992 31.1236
1996 31.4486
2000 31.5513
2004 31.4928
2008 31.6977
2012 31.4491
2016 31.5370
2020 31.6242
2024 31.8272
2028 32.0744
2032 31.9418
2036 32.0434
2040 32.0287
2044 32.1888
2048 32.0861
2052 32.1287
2056 32.2426
2060 32.0701
2064 32.2280
2068 32.2854
2072 32.2994
2076 32.5305
2079.5 32.4418
2080.3 32.3815
2081.2 32.5812
2082 32.5775
2082.8 32.5092
2083.7 32.5422
2084.5 32.5741
2085.3 32.5607
2086.2 32.6088
2087 32.5800
2087.9 32.4211
2088.7 32.4338
2089.5 32.4887
2090.4 32.5422
2091.2 32.5377
2092.1 32.5146
2092.9 32.5125
2093.8 32.5409
2094.6 32.6464
2095.5 32.7143
2096.3 32.6269
2097.1 32.4543
2098 32.4657
2098.8 32.5216
2099.7 32.5422
2100.5 32.5158
2101.4 32.4897
2102.3 32.5170
2103.1 32.5926
2104 32.6589
2104.8 32.6464
2105.7 32.6315
2106.5 32.5973
2107.4 32.5583
2108.2 32.6523
2109.1 32.6464
2110 32.4157
2110.8 32.4189
2111.7 32.5926
2112.5 32.6430
2113.4 32.5651
2114.3 32.5422
2115.1 32.6786
2116 32.7270
2116.8 32.7475
2117.7 32.6418
2118.6 32.6464
2119.4 32.7487
2120.3 32.7441
2121.2 32.7187
2122 32.6811
2122.9 32.5775
2123.8 32.5080
2124.7 32.5800
2125.5 32.6235
2126.4 32.6315
2127.3 32.5673
2128.1 32.6337
2129 32.6144
2129.9 32.5639
2130.8 32.5558
2131.6 32.4521
2132.5 32.5102
2133.4 32.5661
2134.3 32.5434
2135.2 32.5617
2136 32.6269
2136.9 32.6418
2137.8 32.6064
2138.7 32.5732
2139.6 32.5251
2140.4 32.4313
2141.3 32.4623
2142.2 32.4589
2143.1 32.5114
2144 32.5492
2144.9 32.5741
2145.8 32.5595
2146.6 32.4701
2147.5 32.4110
2148.4 32.4599
2149.3 32.4941
2150.2 32.4521
2151.1 32.3883
2152 32.4589
2152.9 32.5409
2153.8 32.4772
2154.7 32.5125
2155.6 32.5558
2156.5 32.4543
2157.4 32.3835
2158.3 32.3632
2159.2 32.3744
2160.1 32.4521
2161 32.4508
2161.9 32.4406
2162.8 32.4508
2163.7 32.4324
2164.6 32.4098
2165.5 32.4098
2166.4 32.4508
2167.3 32.3691
2168.2 32.2475
2169.1 32.2985
2170 32.3598
2170.9 32.3554
2171.8 32.3905
2172.7 32.3974
2173.6 32.3088
2174.6 32.2665
2175.5 32.2565
2176.4 32.1908
2177.3 32.2238
2178.2 32.2702
2179.1 32.2225
2180 32.2201
2181 32.1774
2181.9 32.2372
2182.8 32.1952
2183.7 32.0790
2184.6 32.1806
2185.6 32.2113
2186.5 32.1569
2187.4 32.1827
2188.3 32.1457
2189.3 32.0881
2190.2 32.1230
2191.1 32.1852
2192 32.1650
2193 32.1105
2193.9 32.1139
2194.8 32.1105
2195.7 32.0656
2196.7 32.0485
2197.6 32.0497
2198.5 32.0307
2199.5 32.0465
2200.4 32.0949
2201.3 32.0644
2202.3 32.0677
2203.2 32.1083
2204.1 32.0971
2205.1 32.0229
2206 32.0125
2207 32.0859
2207.9 32.1130
2208.8 32.1061
2209.8 32.0926
2210.7 32.1366
2211.7 32.1152
2212.6 32.0702
2213.6 32.1017
2214.5 32.1694
2215.5 32.2135
2216.4 32.2509
2217.3 32.1840
2218.3 32.1827
2219.2 32.2325
2220.2 32.2655
2221.1 32.2780
2222.1 32.2453
2223.1 32.2225
2224 32.2576
2225 32.2611
2225.9 32.2225
2226.9 32.2416
2227.8 32.2870
2228.8 32.2870
2229.7 32.2839
2230.7 32.3177
2231.7 32.3190
2232.6 32.3371
2233.6 32.3346
2234.5 32.2712
2235.5 32.2248
2236.5 32.2416
2237.4 32.2192
2238.4 32.2870
2239.4 32.3930
2240.3 32.3359
2241.3 32.2553
2242.3 32.2076
2243.3 32.2089
2244.2 32.1524
2245.2 32.1491
2246.2 32.1930
2247.1 32.1806
2248.1 32.1513
2249.1 32.1624
2250.1 32.1388
2251 32.1547
2252 32.1366
2253 32.0981
2254 32.0981
2255 32.0802
2255.9 32.1083
2256.9 32.1175
2257.9 32.0666
2258.9 32.0465
2259.9 32.0722
2260.9 32.0926
2261.8 32.0666
2262.8 32.0170
2263.8 32.0474
2264.8 31.9721
2265.8 31.9318
2266.8 31.9992
2267.8 32.0419
2268.8 31.9902
2269.8 31.9499
2270.8 31.9811
2271.8 31.9465
2272.8 31.9206
2273.8 31.9294
2274.7 31.8722
2275.7 31.8197
2276.7 31.8254
2277.7 31.8747
2278.7 31.8881
2279.8 31.8747
2280.8 31.9318
2281.8 31.8791
2282.8 31.8197
2283.8 31.8241
2284.8 31.7841
2285.8 31.7362
2286.8 31.7594
2287.8 31.7707
2288.8 31.7260
2289.8 31.6213
2290.8 31.7204
2291.8 31.7048
2292.9 31.6259
2293.9 31.6381
2294.9 31.6838
2295.9 31.6581
2296.9 31.6259
2297.9 31.6791
2299 31.5968
2300 31.5282
2301 31.5536
2302 31.5348
2303 31.4672
2304.1 31.4928
2305.1 31.5370
2306.1 31.4882
2307.1 31.4528
2308.2 31.4474
2309.2 31.4506
2310.2 31.4418
2311.3 31.4274
2312.3 31.4152
2313.3 31.4075
2314.4 31.4198
2315.4 31.4784
2316.4 31.5236
2317.5 31.5325
2318.5 31.5358
2319.5 31.5182
2320.6 31.5025
2321.6 31.5072
2322.6 31.5425
2323.7 31.5248
2324.7 31.4696
2325.8 31.5236
2326.8 31.5160
2327.9 31.4330
2328.9 31.3923
2330 31.4054
2331 31.4528
2332.1 31.4064
2333.1 31.3226
2334.2 31.3493
2335.2 31.4274
2336.3 31.4220
2337.3 31.3591
2338.4 31.3261
2339.4 31.3778
2340.5 31.3966
2341.5 31.2624
2342.6 31.2206
2343.6 31.2799
2344.7 31.3195
2345.8 31.3095
2346.8 31.3239
2347.9 31.3007
2349 31.1823
2350 31.1220
2351.1 31.1549
2352.2 31.1933
2353.2 31.2074
2354.3 31.1735
2355.4 31.1767
2356.4 31.1647
2357.5 31.1745
2358.6 31.2099
2359.7 31.2272
2360.7 31.2492
2361.8 31.2294
2362.9 31.2008
2364 31.1955
2365 31.1364
2366.1 31.0610
2367.2 31.0981
2368.3 31.1657
2369.4 31.1669
2370.4 31.1386
2371.5 31.1100
2372.6 31.0993
2373.7 31.0336
2374.8 31.0553
2375.9 31.0478
2377 30.9974
2378.1 30.9814
2379.1 31.0490
2380.2 31.0424
2381.3 30.9594
2382.4 30.9467
2383.5 30.9594
2384.6 30.9235
2385.7 30.9269
2386.8 30.9064
2387.9 30.8412
2389 30.8173
2390.1 30.7785
2391.2 30.7861
2392.3 30.8337
2393.4 30.7643
2394.5 30.7460
2395.6 30.7179
2396.7 30.7072
2397.9 30.6876
2399 30.6996
2400.1 30.6724
2401.2 30.5986
2402.3 30.5641
2403.4 30.6015
2404.5 30.5986
2405.6 30.5531
2406.8 30.5221
2407.9 30.5070
2409 30.4845
2410.1 30.4953
2411.2 30.4482
2412.4 30.4535
2413.5 30.4482
2414.6 30.4418
2415.7 30.4001
2416.9 30.3788
2418 30.3732
2419.1 30.3051
2420.2 30.2116
2421.4 30.2138
2422.5 30.2563
2423.6 30.1767
2424.8 30.0710
2425.9 30.0710
2427 30.1091
2428.2 30.0434
2429.3 29.9484
2430.5 30.0119
2431.6 30.0011
2432.7 29.9496
2433.9 29.9306
2435 29.9115
2436.2 29.8825
2437.3 29.8036
2438.5 29.7231
2439.6 29.6908
2440.8 29.6730
2441.9 29.6615
2443.1 29.6095
2444.2 29.5575
2445.4 29.5214
2446.5 29.5512
2447.7 29.5502
2448.8 29.4352
2450 29.3742
2451.1 29.4074
2452.3 29.3361
2453.5 29.2580
2454.6 29.2292
2455.8 29.2372
2456.9 29.2096
2458.1 29.2209
2459.3 29.2076
2460.4 29.1032
2461.6 29.0051
2462.8 28.9684
2464 28.9155
2465.1 28.9206
2466.3 28.9042
2467.5 28.8010
2468.6 28.8202
2469.8 28.8241
2471 28.7756
2472.2 28.7363
2473.4 28.7585
2474.5 28.7302
2475.7 28.6776
2476.9 28.6315
2478.1 28.5732
2479.3 28.5229
2480.5 28.5199
2481.6 28.4921
2482.8 28.4789
2484 28.4899
2485.2 28.4828
2486.4 28.4411
2487.6 28.4040
2488.8 28.3671
2490 28.3393
2491.2 28.3542
2492.4 28.3224
2493.6 28.2311
2494.8 28.2043
2496 28.2476
2497.2 28.2576
2498.4 28.2199
2499.6 28.2172
2500.8 28.2150
2502 28.1149
2503.2 28.0522
2504.4 28.0522
2505.6 28.0490
2506.8 28.0893
2508.1 28.0834
2509.3 28.0275
2510.5 28.0107
2511.7 28.0461
2512.9 28.0490
2514.1 28.0688
2515.4 28.0490
2516.6 27.9684
2517.8 27.8857
2519 27.8613
2520.2 27.8515
2521.5 27.8224
2522.7 27.8046
2523.9 27.8556
2525.2 27.9006
2526.4 27.8703
2527.6 27.8117
2528.9 27.7648
2530.1 27.7206
2531.3 27.7353
2532.6 27.7831
2533.8 27.7990
2535 27.7431
2536.3 27.7576
2537.5 27.8437
2538.8 27.8281
2540 27.8351
2541.3 27.7450
2542.5 27.5353
2543.7 27.5507
2545 27.7070
2546.2 27.6740
2547.5 27.6274
2548.7 27.6906
2550 27.6362
2551.3 27.5199
2552.5 27.4579
2553.8 27.6315
2555 27.7765
2556.3 27.7665
2557.5 27.7460
2558.8 27.6283
2560.1 27.2419
2561.3 26.9496
2562.6 26.9960
2563.9 27.0873
2565.1 27.3417
2566.4 27.6335
2567.7 27.5663
2569 27.2985
2570.2 27.3447
2571.5 27.4589
2572.8 26.9960
2574.1 27.1071
2575.3 27.3071
2576.6 27.1960
2577.9 27.4650
2579.2 27.5759
2580.5 27.2573
2581.7 27.1359
2583 26.7328
2584.3 26.7695
2585.6 27.1224
2586.9 26.9960
2588.2 27.0986
2589.5 27.2841
2590.8 27.4687
2592.1 27.1989
2593.4 26.0402
2594.7 25.1375
2596 26.0632
2597.3 27.0798
2598.6 27.4137
2599.9 27.2389
2601.2 26.9760
2602.5 26.8429
2603.8 26.4794
2605.1 26.0356
2606.4 26.3207
2607.7 26.6979
2609 26.7758
2610.3 26.9345
2611.7 26.9970
2613 26.8681
2614.3 26.8117
2615.6 26.2304
2616.9 26.0236
2618.3 26.3735
2619.6 25.9699
2620.9 26.0905
2622.2 26.7233
2623.6 26.7909
2624.9 26.4172
2626.2 25.8288
2627.5 26.0732
2628.9 25.8744
2630.2 25.2875
2631.5 25.7255
2632.9 26.0109
2634.2 25.9699
2635.6 26.1017
2636.9 26.0732
2638.2 26.0446
2639.6 25.9625
2640.9 25.8134
2642.3 25.6226
2643.6 25.5554
2645 25.2704
2646.3 25.2111
2647.7 25.2890
2649 25.2438
2650.4 24.9819
2651.7 24.5305
2653.1 24.4124
2654.5 24.3793
2655.8 24.2307
2657.2 24.2238
2658.5 23.8312
2659.9 23.5178
2661.3 23.3808
2662.6 23.1657
2664 22.2861
2665.4 21.5788
2666.7 21.4501
2668.1 21.5417
2669.5 20.6921
2670.9 20.4340
2672.2 20.9792
2673.6 20.7109
2675 19.9335
2676.4 19.1940
2677.8 18.8684
2679.1 18.5002
2680.5 18.3525
2681.9 17.9035
2683.3 17.2793
2684.7 16.7619
2686.1 16.2465
2687.5 15.7846
2688.9 15.3203
2690.3 14.8037
2691.7 14.1774
2693.1 13.3903
2694.5 12.9079
2695.9 12.6525
2697.3 12.3288
2698.7 11.9812
2700.1 11.5964
2701.5 11.1308
2702.9 10.8227
2704.3 10.5359
2705.7 10.2573
2707.1 9.9345
2708.5 9.5407
2710 9.1889
2711.4 9.0268
2712.8 8.9714
2714.2 8.7903
2715.6 8.5644
2717.1 8.2392
2718.5 7.8633
2719.9 7.3928
2721.3 7.2527
2722.8 7.1155
2724.2 6.7966
2725.6 6.6489
2727.1 6.6011
2728.5 6.4824
2729.9 6.3491
2731.4 6.2080
2732.8 5.9612
2734.3 5.6933
2735.7 5.5200
2737.1 5.3735
2738.6 5.1589
2740 4.9787
2741.5 4.9060
2742.9 4.8642
2744.4 4.8674
2745.8 4.8262
2747.3 4.6838
2748.8 4.5520
2750.2 4.4324
2751.7 4.3398
2753.1 4.2512
2754.6 4.0478
2756.1 3.9910
2757.5 4.0347
2759 3.9687
2760.5 3.8743
2761.9 3.8264
2763.4 3.7800
2764.9 3.7558
2766.4 3.7058
2767.8 3.6836
2769.3 3.6589
2770.8 3.5967
2772.3 3.5871
2773.8 3.5835
2775.2 3.5635
2776.7 3.5842
2778.2 3.5505
2779.7 3.4844
2781.2 3.4499
2782.7 3.4043
2784.2 3.3877
2785.7 3.3489
2787.2 3.2590
2788.7 3.2058
2790.2 3.2270
2791.7 3.2830
2793.2 3.2419
2794.7 3.1855
2796.2 3.1797
2797.7 3.1245
2799.2 3.1081
2800.7 3.0642
2802.2 2.9774
2803.8 2.9600
2805.3 3.0105
2806.8 2.9968
2808.3 2.9934
2809.8 2.9758
2811.4 2.9529
2812.9 2.9477
2814.4 2.9619
2815.9 2.9238
2817.5 2.8584
2819 2.8152
2820.5 2.7768
2822.1 2.8022
2823.6 2.7800
2825.2 2.7097
2826.7 2.6841
2828.2 2.7385
2829.8 2.7395
2831.3 2.6851
2832.9 2.6985
2834.4 2.7231
2836 2.6811
2837.5 2.6352
2839.1 2.6848
2840.6 2.7158
2842.2 2.6758
2843.7 2.6301
2845.3 2.6196
2846.9 2.6533
2848.4 2.6226
2850 2.5432
2851.6 2.5122
2853.1 2.5022
2854.7 2.5535
2856.3 2.5789
2857.9 2.5237
2859.4 2.5000
2861 2.5112
2862.6 2.4944
2864.2 2.5146
2865.8 2.5154
2867.3 2.5286
2868.9 2.5330
2870.5 2.4574
2872.1 2.4458
2873.7 2.5054
2875.3 2.4936
2876.9 2.4541
2878.5 2.4446
2880.1 2.4497
2881.7 2.4673
2883.3 2.4302
2884.9 2.4038
2886.5 2.3552
2888.1 2.3506
2889.7 2.4160
2891.3 2.4233
2892.9 2.3494
2894.6 2.3274
2896.2 2.4238
2897.8 2.4521
2899.4 2.3706
2901 2.3306
2902.7 2.3489
2904.3 2.3857
2905.9 2.3677
2907.5 2.3877
2909.2 2.3789
2910.8 2.3545
2912.4 2.3857
2914.1 2.3501
2915.7 2.3618
2917.4 2.3760
2919 2.3784
2920.7 2.3686
2922.3 2.3945
2923.9 2.4055
2925.6 2.3564
2927.2 2.3547
2928.9 2.4028
2930.6 2.3569
2932.2 2.3760
2933.9 2.3852
2935.5 2.3093
2937.2 2.3132
2938.9 2.3743
2940.5 2.3784
2942.2 2.3486
2943.9 2.3122
2945.5 2.3208
2947.2 2.3162
2948.9 2.2795
2950.6 2.3135
2952.3 2.3447
2953.9 2.3645
2955.6 2.3835
2957.3 2.3957
2959 2.3931
2960.7 2.4067
2962.4 2.3870
2964.1 2.3769
2965.8 2.3643
2967.5 2.3850
2969.2 2.4116
2970.9 2.4521
2972.6 2.4531
2974.3 2.3982
2976 2.3696
2977.7 2.4209
2979.4 2.4473
2981.1 2.4246
2982.8 2.4221
2984.5 2.3940
2986.3 2.4070
2988 2.4629
2989.7 2.4734
2991.4 2.4736
2993.2 2.4795
2994.9 2.4863
2996.6 2.4661
2998.4 2.4685
3000.1 2.5022
3001.8 2.4595
3003.6 2.4560
3005.3 2.4856
3007 2.5149
3008.8 2.5530
3010.5 2.5435
3012.3 2.5137
3014 2.5332
3015.8 2.5271
3017.6 2.5090
3019.3 2.5391
3021.1 2.5601
3022.8 2.5635
3024.6 2.5361
3026.4 2.5767
3028.1 2.6167
3029.9 2.6291
3031.7 2.5857
3033.4 2.5784
3035.2 2.6296
3037 2.6587
3038.8 2.6538
3040.6 2.6228
3042.3 2.6055
3044.1 2.6111
3045.9 2.6379
3047.7 2.6352
3049.5 2.6636
3051.3 2.6243
3053.1 2.6130
3054.9 2.6726
3056.7 2.7048
3058.5 2.7046
3060.3 2.7161
3062.1 2.7314
3063.9 2.7141
3065.7 2.7163
3067.5 2.7104
3069.4 2.7202
3071.2 2.7143
3073 2.7602
3074.8 2.7742
3076.6 2.7646
3078.5 2.7724
3080.3 2.7656
3082.1 2.7656
3084 2.7549
3085.8 2.7891
3087.6 2.8047
3089.5 2.8110
3091.3 2.8347
3093.2 2.8437
3095 2.8381
3096.9 2.8467
3098.7 2.8750
3100.6 2.8647
3102.4 2.8384
3104.3 2.8738
3106.1 2.8976
3108 2.9324
3109.9 2.9602
3111.7 2.9438
3113.6 2.9587
3115.5 2.9724
3117.4 2.9856
3119.2 3.0041
3121.1 2.9902
3123 3.0090
3124.9 3.0185
3126.8 2.9897
3128.6 3.0041
3130.5 3.0305
3132.4 3.0332
3134.3 3.0703
3136.2 3.1042
3138.1 3.0994
3140 3.1235
3141.9 3.1694
3143.8 3.1706
3145.7 3.1667
3147.6 3.2004
3149.5 3.1736
3151.5 3.1648
3153.4 3.2063
3155.3 3.2505
3157.2 3.2651
3159.1 3.2724
3161.1 3.2683
3163 3.2793
3164.9 3.3220
3166.9 3.3249
3168.8 3.3061
3170.7 3.3296
3172.7 3.3464
3174.6 3.3364
3176.6 3.3682
3178.5 3.4277
3180.5 3.4431
3182.4 3.4141
3184.4 3.4143
3186.3 3.4700
3188.3 3.4912
3190.2 3.4890
3192.2 3.4919
3194.2 3.5234
3196.1 3.5610
3198.1 3.5818
3200.1 3.5481
3202.1 3.5464
3204 3.5664
3206 3.6047
3208 3.6208
3210 3.6470
3212 3.6765
3214 3.6836
3216 3.6921
3218 3.7268
3220 3.7224
3222 3.7185
3224 3.7424
3226 3.7851
3228 3.8096
3230 3.8288
3232 3.8245
3234 3.8042
3236.1 3.8130
3238.1 3.8638
3240.1 3.8950
3242.1 3.9126
3244.2 3.9079
3246.2 3.9206
3248.2 3.9648
3250.3 4.0044
3252.3 4.0354
3254.3 4.0373
3256.4 4.0198
3258.4 4.0386
3260.5 4.0452
3262.5 4.0779
3264.6 4.0998
3266.6 4.1040
3268.7 4.1357
3270.8 4.1653
3272.8 4.1738
3274.9 4.1692
3277 4.1819
3279 4.2571
3281.1 4.2712
3283.2 4.2617
3285.3 4.2734
3287.4 4.3276
3289.4 4.3777
3291.5 4.3901
3293.6 4.3896
3295.7 4.4067
3297.8 4.4265
3299.9 4.4700
3302 4.4895
3304.1 4.5073
3306.2 4.5246
3308.3 4.5415
3310.4 4.5293
3312.6 4.5603
3314.7 4.5994
3316.8 4.6260
3318.9 4.5906
3321 4.6096
3323.2 4.6890
3325.3 4.7051
3327.4 4.6760
3329.6 4.6614
3331.7 4.6767
3333.9 4.7043
3336 4.7258
3338.2 4.7749
3340.3 4.7773
3342.5 4.7527
3344.6 4.7673
3346.8 4.8201
3348.9 4.8306
3351.1 4.7956
3353.3 4.7810
3355.4 4.8247
3357.6 4.8391
3359.8 4.8252
3362 4.8452
3364.1 4.8601
3366.3 4.8745
3368.5 4.8769
3370.7 4.8716
3372.9 4.8738
3375.1 4.8711
3377.3 4.8535
3379.5 4.8357
3381.7 4.8447
3383.9 4.8799
3386.1 4.8979
3388.3 4.8811
3390.6 4.8696
3392.8 4.8740
3395 4.8713
3397.2 4.8640
3399.4 4.8769
3401.7 4.8423
3403.9 4.8174
3406.1 4.8240
3408.4 4.8530
3410.6 4.8972
3412.9 4.8581
3415.1 4.8174
3417.4 4.8257
3419.6 4.8528
3421.9 4.8955
3424.1 4.9470
3426.4 4.9812
3428.7 5.0132
3430.9 5.0708
3433.2 5.1619
3435.5 5.2900
3437.8 5.3901
3440 5.4358
3442.3 5.4997
3444.6 5.5622
3446.9 5.5862
3449.2 5.6194
3451.5 5.6907
3453.8 5.7500
3456.1 5.7720
3458.4 5.8371
3460.7 5.8906
3463 5.9187
3465.3 5.9560
3467.7 5.9956
3470 6.0251
3472.3 6.0598
3474.6 6.0676
3477 6.0681
3479.3 6.1028
3481.6 6.1846
3484 6.2243
3486.3 6.2134
3488.7 6.2341
3491 6.2734
3493.4 6.2668
3495.7 6.2461
3498.1 6.2307
3500.4 6.2168
3502.8 6.2053
3505.2 6.1974
3507.5 6.2200
3509.9 6.3347
3512.3 6.4774
3514.7 6.6191
3517.1 6.7605
3519.5 6.9065
3521.8 7.0200
3524.2 7.0908
3526.6 7.1963
3529 7.2883
3531.4 7.3042
3533.8 7.3442
3536.3 7.4099
3538.7 7.4812
3541.1 7.5383
3543.5 7.5875
3545.9 7.6257
3548.4 7.6714
3550.8 7.7138
3553.2 7.7829
3555.7 7.8562
3558.1 7.9055
3560.5 7.9297
3563 7.9634
3565.4 8.0061
3567.9 8.0390
3570.4 8.1047
3572.8 8.1489
3575.3 8.1804
3577.7 8.2317
3580.2 8.2495
3582.7 8.2883
3585.2 8.3445
3587.6 8.3818
3590.1 8.4565
3592.6 8.5239
3595.1 8.5500
3597.6 8.6177
3600.1 8.6413
3602.6 8.6511
3605.1 8.7068
3607.6 8.7612
3610.1 8.7585
3612.7 8.7929
3615.2 8.8845
3617.7 8.9607
3620.2 9.0156
3622.7 9.0375
3625.3 9.0510
3627.8 9.0827
3630.4 9.1128
3632.9 9.1369
3635.5 9.1848
3638 9.2274
3640.6 9.2751
3643.1 9.3308
3645.7 9.3440
3648.2 9.3723
3650.8 9.4424
3653.4 9.4790
3656 9.5000
3658.5 9.5493
3661.1 9.5979
3663.7 9.6487
3666.3 9.6789
3668.9 9.7270
3671.5 9.7829
3674.1 9.8235
3676.7 9.8681
3679.3 9.8994
3681.9 9.9299
3684.5 9.9555
3687.2 9.9836
3689.8 10.0254
3692.4 10.0666
3695 10.1172
3697.7 10.1875
3700.3 10.1877
3703 10.2380
3705.6 10.3098
3708.3 10.3562
3710.9 10.3586
3713.6 10.3762
3716.2 10.4280
3718.9 10.4743
3721.6 10.5420
3724.2 10.5613
3726.9 10.5930
3729.6 10.6308
3732.3 10.6428
3735 10.6738
3737.7 10.7060
3740.4 10.7556
3743.1 10.8288
3745.8 10.8528
3748.5 10.8901
3751.2 10.9167
3753.9 10.9336
3756.6 10.9878
3759.4 11.0320
3762.1 11.0603
3764.8 11.0759
3767.6 11.1289
3770.3 11.1904
3773 11.1924
3775.8 11.1877
3778.5 11.2251
3781.3 11.2563
3784.1 11.2678
3786.8 11.3308
3789.6 11.3552
3792.4 11.3652
3795.1 11.4011
3797.9 11.4421
3800.7 11.4792
3803.5 11.5149
3806.3 11.5302
3809.1 11.5415
3811.9 11.5581
3814.7 11.5854
3817.5 11.6152
3820.3 11.6606
3823.1 11.6623
3825.9 11.6843
3828.8 11.7395
3831.6 11.7265
3834.4 11.7341
3837.3 11.7988
3840.1 11.8427
3843 11.8466
3845.8 11.8657
3848.7 11.8999
3851.5 11.8796
3854.4 11.9043
3857.3 11.9590
3860.1 11.9680
3863 11.9646
3865.9 11.9929
3868.8 12.0156
3871.7 12.0424
3874.6 12.0368
3877.5 12.0569
3880.4 12.0996
3883.3 12.1191
3886.2 12.0854
3889.1 12.1059
3892 12.1413
3894.9 12.1574
3897.9 12.1548
3900.8 12.1689
3903.7 12.1704
3906.7 12.1982
3909.6 12.2170
3912.6 12.2174
3915.5 12.2509
3918.5 12.2495
3921.4 12.2361
3924.4 12.2610
3927.4 12.3042
3930.4 12.3105
3933.3 12.3175
3936.3 12.3257
3939.3 12.3491
3942.3 12.3808
3945.3 12.4025
3948.3 12.3938
3951.3 12.3786
3954.4 12.3757
3957.4 12.4218
3960.4 12.4470
3963.4 12.3930
3966.5 12.3860
3969.5 12.4304
3972.5 12.4725
3975.6 12.4638
3978.6 12.4572
3981.7 12.4668
3984.7 12.4875
3987.8 12.5085
3990.9 12.5341
3994 12.5151
3997 12.5158
4000.1 12.5317
4003.2 12.5749
4006.3 12.5988
4009.4 12.6098
4012.5 12.6240
4015.6 12.6015
4018.7 12.6001
4021.8 12.6438
4025 12.7114
4028.1 12.7087
4031.2 12.6416
4034.4 12.6596
4037.5 12.7065
4040.6 12.7104
4043.8 12.7238
4047 12.7802
4050.1 12.8237
4053.3 12.8322
4056.5 12.8010
4059.6 12.8078
4062.8 12.8547
4066 12.8664
4069.2 12.8801
4072.4 12.9106
4075.6 12.8989
4078.8 12.9104
4082 12.9658
4085.2 12.9641
4088.4 12.9825
4091.7 13.0163
4094.9 13.0293
4098.1 13.0371
4101.4 13.0261
4104.6 13.0569
4107.9 13.0849
4111.1 13.0869
4114.4 13.1037
4117.7 13.1162
4120.9 13.1347
4124.2 13.1882
4127.5 13.2129
4130.8 13.1914
4134.1 13.1831
4137.4 13.2025
4140.7 13.2453
4144 13.2644
4147.3 13.2685
4150.6 13.2817
4154 13.3000
4157.3 13.3147
4160.6 13.3330
4164 13.3313
4167.3 13.3391
4170.7 13.3874
4174 13.3852
4177.4 13.3965
4180.8 13.4565
4184.1 13.4834
4187.5 13.4531
4190.9 13.4487
4194.3 13.4450
4197.7 13.4536
4201.1 13.4621
4204.5 13.4648
4207.9 13.4687
4211.3 13.4729
4214.8 13.4616
4218.2 13.4409
4221.6 13.3938
4225.1 13.3969
4228.5 13.3918
4232 13.3624
4235.4 13.3725
4238.9 13.3742
4242.4 13.3960
4245.8 13.4629
4249.3 13.5617
4252.8 13.6130
4256.3 13.6006
4259.8 13.5642
4263.3 13.5275
4266.8 13.4851
4270.3 13.4546
4273.8 13.4355
4277.4 13.4550
4280.9 13.4839
4284.4 13.5141
4288 13.5351
4291.5 13.5517
4295.1 13.5727
4298.6 13.5852
4302.2 13.6067
4305.8 13.5991
4309.4 13.6440
4312.9 13.6779
4316.5 13.6909
4320.1 13.7055
4323.7 13.7125
4327.3 13.7277
4331 13.7194
4334.6 13.7031
4338.2 13.7102
4341.8 13.7251
4345.5 13.7146
4349.1 13.6823
4352.8 13.7025
4356.4 13.7209
4360.1 13.7089
4363.8 13.7212
4367.4 13.7080
4371.1 13.6909
4374.8 13.7080
4378.5 13.7155
4382.2 13.6838
4385.9 13.6345
4389.6 13.6545
4393.4 13.6569
4397.1 13.6360
4400.8 13.6081
4404.5 13.5771
4408.3 13.5842
4412 13.6291
4415.8 13.6286
4419.6 13.6057
4423.3 13.5893
4427.1 13.5903
4430.9 13.5923
4434.7 13.5539
4438.5 13.5471
4442.3 13.5683
4446.1 13.5617
4449.9 13.5241
4453.7 13.4934
4457.6 13.5074
4461.4 13.5074
4465.2 13.4577
4469.1 13.4389
4473 13.4284
4476.8 13.4162
4480.7 13.4148
4484.6 13.4118
4488.4 13.4243
4492.3 13.4138
4496.2 13.4079
4500.1 13.4104
4504 13.3720
4508 13.3466
4511.9 13.3654
4515.8 13.3564
4519.7 13.3181
4523.7 13.2995
4527.6 13.3152
4531.6 13.2898
4535.6 13.2612
4539.5 13.2558
4543.5 13.2602
4547.5 13.2470
4551.5 13.2141
4555.5 13.1897
4559.5 13.1396
4563.5 13.1203
4567.5 13.1308
4571.6 13.1128
4575.6 13.0710
4579.6 13.0481
4583.7 13.0224
4587.7 13.0273
4591.8 13.0251
4595.9 12.9912
4600 12.9741
4604 12.9621
4608.1 12.9425
4612.2 12.9167
4616.3 12.8994
4620.5 12.8608
4624.6 12.8105
4628.7 12.7758
4632.8 12.7534
4637 12.7412
4641.1 12.7436
4645.3 12.7236
4649.5 12.7119
4653.6 12.6892
4657.8 12.6670
4662 12.6428
4666.2 12.6037
4670.4 12.5710
4674.6 12.5415
4678.8 12.5400
4683.1 12.5498
4687.3 12.5153
4691.5 12.5070
4695.8 12.4975
4700 12.4648
4704.3 12.4574
4708.6 12.4489
4712.9 12.4192
4717.2 12.4023
4721.5 12.4050
4725.8 12.4065
4730.1 12.3759
4734.4 12.3669
4738.7 12.3545
4743.1 12.3359
4747.4 12.3283
4751.7 12.3049
4756.1 12.2871
4760.5 12.2668
4764.8 12.2414
4769.2 12.2514
4773.6 12.2536
4778 12.2339
4782.4 12.2295
4786.8 12.2119
4791.3 12.1787
4795.7 12.1508
4800.1 12.1648
4804.6 12.1648
4809 12.1352
4813.5 12.1123
4818 12.1024
4822.5 12.0805
4827 12.0410
4831.5 12.0222
4836 12.0149
4840.5 11.9912
4845 11.9695
4849.5 11.9336
4854.1 11.9150
4858.6 11.9030
4863.2 11.8781
4867.8 11.8462
4872.3 11.8005
4876.9 11.7617
4881.5 11.7329
4886.1 11.6789
4890.7 11.6242
4895.3 11.5937
4900 11.5678
4904.6 11.5224
4909.2 11.4546
4913.9 11.3886
4918.6 11.3449
4923.2 11.2934
4927.9 11.2434
4932.6 11.1994
4937.3 11.1638
4942 11.1152
4946.7 11.0664
4951.4 11.0173
4956.2 10.9743
4960.9 10.9377
4965.7 10.9033
4970.4 10.8645
4975.2 10.8283
4980 10.8020
4984.8 10.7325
4989.6 10.6804
4994.4 10.6589
4999.2 10.6465
5004 10.6206
5008.8 10.6020
5013.7 10.5625
5018.5 10.5056
5023.4 10.4973
5028.3 10.5168
5033.2 10.5197
5038 10.4988
5043 10.4685
5047.9 10.4421
5052.8 10.4177
5057.7 10.4099
5062.7 10.3962
5067.6 10.3799
5072.6 10.3796
5077.5 10.3628
5082.5 10.3196
5087.5 10.3313
5092.5 10.3425
5097.5 10.3327
5102.5 10.3154
5107.5 10.2964
5112.6 10.2680
5117.6 10.2470
5122.7 10.2246
5127.7 10.2031
5132.8 10.1733
5137.9 10.1421
5143 10.0737
5148.1 10.0346
5153.2 10.0395
5158.4 10.0405
5163.5 10.0449
5168.6 10.0100
5173.8 9.9963
5179 9.9668
5184.2 9.9328
5189.3 9.9011
5194.5 9.8523
5199.8 9.7998
5205 9.7688
5210.2 9.6462
5215.4 9.5703
5220.7 9.5603
5226 9.5119
5231.2 9.4499
5236.5 9.3681
5241.8 9.2900
5247.1 9.2246
5252.4 9.1648
5257.8 9.0962
5263.1 8.9941
5268.4 8.9072
5273.8 8.8467
5279.2 8.7781
5284.6 8.7065
5290 8.6116
5295.4 8.5473
5300.8 8.5515
5306.2 8.5324
5311.6 8.4836
5317.1 8.4309
5322.5 8.3925
5328 8.3408
5333.5 8.2910
5339 8.2715
5344.5 8.2031
5350 8.1296
5355.5 8.1736
5361.1 8.2214
5366.6 8.2483
5372.2 8.2690
5377.8 8.2788
5383.3 8.2993
5388.9 8.3415
5394.5 8.3266
5400.2 8.3191
5405.8 8.3413
5411.4 8.3594
5417.1 8.2461
5422.8 8.1760
5428.4 8.2785
5434.1 8.3362
5439.8 8.3230
5445.5 8.2920
5451.3 8.2507
5457 8.1594
5462.8 8.0166
5468.5 8.0034
5474.3 7.9629
5480.1 7.8816
5485.9 7.8777
5491.7 7.8447
5497.5 7.7732
5503.3 7.6916
5509.2 7.6138
5515.1 7.4924
5520.9 7.3757
5526.8 7.2837
5532.7 7.2065
5538.6 7.1057
5544.5 6.9756
5550.5 6.8318
5556.4 6.7278
5562.4 6.6396
5568.4 6.5232
5574.4 6.3071
5580.4 6.1504
5586.4 6.1374
5592.4 6.0615
5598.4 5.9170
5604.5 5.7815
5610.6 5.6599
5616.6 5.5596
5622.7 5.4966
5628.8 5.3494
5634.9 5.1455
5641.1 4.9658
5647.2 4.9402
5653.4 4.8791
5659.6 4.8381
5665.7 4.7856
5671.9 4.6284
5678.2 4.5544
5684.4 4.5246
5690.6 4.4072
5696.9 4.3232
5703.1 4.1890
5709.4 4.0068
5715.7 3.9263
5722 3.8562
5728.3 3.7834
5734.7 3.7131
5741 3.6089
5747.4 3.4978
5753.8 3.4495
5760.2 3.3176
5766.6 3.1582
5773 3.1974
5779.4 3.2068
5785.9 3.1687
5792.3 3.0969
5798.8 3.0259
5805.3 2.9595
5811.8 2.8584
5818.4 2.7158
5824.9 2.6619
5831.4 2.6692
5838 2.6863
5844.6 2.6509
5851.2 2.5671
5857.8 2.4776
5864.4 2.4106
5871.1 2.3755
5877.7 2.2471
5884.4 2.1938
5891.1 2.1724
5897.8 2.1306
5904.5 2.1782
5911.2 2.1316
5918 2.0784
5924.7 2.0444
5931.5 1.9421
5938.3 1.8752
5945.1 1.9131
5952 1.9133
5958.8 1.9040
5965.7 1.8562
5972.5 1.8296
5979.4 1.8018
5986.3 1.7739
5993.2 1.7480
6000.2 1.7400
6007.1 1.7224
6014.1 1.6858
6021.1 1.6824
6028.1 1.6736
6035.1 1.6453
6042.1 1.5654
6049.2 1.4927
6056.3 1.5767
6063.3 1.6077
6070.4 1.5757
6077.6 1.5608
6084.7 1.5823
6091.8 1.5945
6099 1.5984
6106.2 1.5706
6113.4 1.5244
6120.6 1.5488
6127.8 1.5747
6135.1 1.5610
6142.4 1.5666
6149.6 1.5771
6157 1.5696
6164.3 1.5864
6171.6 1.6184
6179 1.5652
6186.3 1.5471
6193.7 1.6304
6201.1 1.6676
6208.6 1.6472
6216 1.6538
6223.5 1.6976
6231 1.7192
6238.5 1.7024
6246 1.7324
6253.5 1.7566
6261.1 1.7688
6268.6 1.7878
6276.2 1.7964
6283.8 1.8227
6291.4 1.8420
6299.1 1.8372
6306.8 1.8735
6314.4 1.8774
6322.1 1.8804
6329.9 1.9155
6337.6 1.8728
6345.4 1.8538
6353.1 1.9541
6360.9 1.9876
6368.7 1.9753
6376.6 2.0173
6384.4 2.0471
6392.3 2.0657
6400.2 2.0754
6408.1 1.9778
6416 1.9705
6424 2.0640
6432 2.0835
6439.9 2.1533
6448 2.2073
6456 2.2136
6464 2.2356
6472.1 2.2207
6480.2 2.2043
6488.3 2.1533
6496.4 2.1616
6504.6 2.2949
6512.8 2.3472
6520.9 2.3424
6529.2 2.4097
6537.4 2.4404
6545.6 2.3940
6553.9 2.3784
6562.2 2.4311
6570.5 2.4001
6578.9 2.4131
6587.2 2.4246
6595.6 2.4228
6604 2.4929
6612.4 2.5071
6620.9 2.4997
6629.4 2.4499
6637.8 2.4248
6646.4 2.5386
6654.9 2.6140
6663.4 2.5930
6672 2.5603
6680.6 2.5627
6689.2 2.6186
6697.9 2.6333
6706.5 2.5537
6715.2 2.5364
6723.9 2.5486
6732.7 2.5498
6741.4 2.5054
6750.2 2.4674
6759 2.4629
6767.8 2.4216
6776.7 2.3127
6785.5 2.2126
6794.4 2.1894
6803.4 2.2078
6812.3 2.1946
6821.3 2.1211
6830.2 2.0732
6839.3 2.1086
6848.3 2.0820
6857.3 1.9819
6866.4 1.9482
6875.5 2.0161
6884.7 2.0215
6893.8 2.0181
6903 2.0076
6912.2 2.0256
6921.4 2.0229
6930.7 1.9895
6940 1.9822
6949.3 1.9363
6958.6 1.8755
6967.9 1.8848
6977.3 1.8801
6986.7 1.8857
6996.2 1.8916
7005.6 1.8804
7015.1 1.8564
7024.6 1.8330
7034.1 1.8120
7043.7 1.7729
7053.3 1.7766
7062.9 1.7959
7072.5 1.7869
7082.2 1.8022
7091.9 1.8052
7101.6 1.7964
7111.3 1.7637
7121.1 1.7766
7130.9 1.8042
7140.7 1.7610
7150.6 1.7417
7160.4 1.7690
7170.3 1.7639
7180.3 1.7488
7190.2 1.7515
7200.2 1.7419
7210.2 1.7258
7220.3 1.7356
7230.3 1.7253
7240.4 1.7300
7250.6 1.7314
7260.7 1.7187
7270.9 1.7043
7281.1 1.7349
7291.4 1.7747
7301.6 1.7485
7311.9 1.7280
7322.3 1.7349
7332.6 1.7217
7343 1.7422
7353.4 1.7766
7363.9 1.7961
7374.3 1.7969
7384.8 1.7932
7395.4 1.7717
7405.9 1.7812
7416.5 1.7742
7427.2 1.7864
7437.8 1.8054
7448.5 1.7947
7459.2 1.7703
7470 1.7764
7480.7 1.7926
7491.6 1.8035
7502.4 1.7998
7513.3 1.8091
7524.2 1.8054
7535.1 1.8049
7546.1 1.7991
7557.1 1.8008
7568.1 1.8032
7579.2 1.8040
7590.3 1.7751
7601.4 1.7852
7612.6 1.8154
7623.8 1.8201
7635 1.8044
7646.2 1.7944
7657.5 1.7766
7668.9 1.8024
7680.2 1.8223
7691.6 1.8120
7703.1 1.8152
7714.5 1.8303
7726 1.8015
7737.5 1.7805
7749.1 1.7915
7760.7 1.8135
7772.3 1.8149
7784 1.8132
7795.7 1.7859
7807.5 1.8237
7819.2 1.8540
7831 1.8306
7842.9 1.8303
7854.8 1.8484
7866.7 1.8660
7878.6 1.8801
7890.6 1.8535
7902.7 1.8684
7914.7 1.9082
7926.8 1.9443
7939 1.9607
7951.2 1.9517
7963.4 1.9392
7975.6 1.9902
7987.9 2.0391
8000.2 2.0286
8012.6 2.0164
8025 2.0588
8037.4 2.1013
8049.9 2.1289
8062.4 2.1084
8075 2.1255
8087.6 2.1599
8100.2 2.2073
8112.9 2.2512
8125.6 2.2471
8138.4 2.2908
8151.2 2.3433
8164 2.3835
8176.9 2.4268
8189.8 2.4429
8202.8 2.4863
8215.8 2.4990
8228.8 2.4573
8241.9 2.4773
8255 2.5254
8268.2 2.5398
8281.4 2.5510
8294.6 2.5552
8307.9 2.5518
8321.3 2.5254
8334.7 2.5063
8348.1 2.4966
8361.5 2.5264
8375 2.5532
8388.6 2.5388
8402.2 2.5332
8415.8 2.5408
8429.5 2.5466
8443.2 2.5652
8457 2.5381
8470.8 2.5244
8484.7 2.5239
8498.6 2.5286
8512.6 2.5237
8526.6 2.5068
8540.6 2.5129
8554.7 2.5127
8568.8 2.5090
8583 2.5195
8597.3 2.5139
8611.6 2.4817
8625.9 2.4441
8640.3 2.4778
8654.7 2.4805
8669.2 2.5198
8683.7 2.5322
8698.2 2.5232
8712.9 2.5537
8727.5 2.5967
8742.2 2.5801
8757 2.5986
8771.8 2.6052
8786.7 2.6343
8801.6 2.6858
8816.6 2.6384
8831.6 2.5845
8846.7 2.6318
8861.8 2.6868
8877 2.7458
8892.2 2.7395
8907.5 2.7646
8922.8 2.8018
8938.2 2.7468
8953.6 2.7439
8969.1 2.7934
8984.7 2.8326
9000.3 2.8611
9015.9 2.8782
9031.6 2.8862
9047.4 2.9128
9063.2 2.9133
9079.1 2.8794
9095 2.8826
9111 2.8894
9127 2.9141
9143.1 2.9294
9159.3 2.9133
9175.5 2.8699
9191.8 2.8865
9208.1 2.8433
9224.5 2.8169
9240.9 2.8147
9257.4 2.8330
9274 2.7969
9290.6 2.7856
9307.3 2.8276
9324 2.8237
9340.8 2.7312
9357.7 2.7126
9374.6 2.7307
9391.6 2.7488
9408.6 2.6807
9425.7 2.6479
9442.9 2.6565
9460.1 2.6450
9477.4 2.6560
9494.8 2.6914
9512.2 2.6902
9529.7 2.6428
9547.2 2.6313
9564.9 2.6026
9582.5 2.5967
9600.3 2.6077
9618.1 2.6514
9636 2.6912
9653.9 2.6589
9671.9 2.6445
9690 2.6694
9708.2 2.6623
9726.4 2.6580
9744.7 2.7327
9763 2.7361
9781.4 2.6672
9799.9 2.7656
9818.5 2.7793
9837.1 2.5583
9855.8 2.5552
9874.6 2.5911
9893.4 2.6304
9912.3 2.6577
9931.3 2.7124
9950.4 2.7224
9969.5 2.7065
9988.7 2.6946
10008 2.6533
10027.4 2.6455
10046.8 2.6545
10066.3 2.6304
10085.9 2.6086
10105.6 2.5693
10125.3 2.5642
10145.1 2.5903
10165 2.5715
10185 2.5461
10205 2.5417
10225.1 2.5283
10245.4 2.5630
10265.6 2.5547
10286 2.5137
10306.5 2.4707
10327 2.4460
10347.6 2.4753
10368.3 2.5054
10389.1 2.4902
10409.9 2.4570
10430.9 2.4153
10451.9 2.4165
10473 2.4246
10494.2 2.4360
10515.5 2.4202
10536.9 2.4170
10558.4 2.4219
10579.9 2.3804
10601.5 2.3472
10623.3 2.3586
10645.1 2.3806
10667 2.4070
10689 2.4155
10711.1 2.4204
10733.2 2.3948
10755.5 2.3757
10777.9 2.3682
10800.3 2.3684
10822.9 2.3523
10845.5 2.3511
10868.2 2.3584
10891.1 2.3782
10914 2.4067
10937 2.4177
10960.2 2.4185
10983.4 2.4376
11006.7 2.4123
11030.1 2.3809
11053.6 2.3581
11077.3 2.3696
11101 2.3899
11124.8 2.4192
11148.7 2.3843
11172.7 2.3826
11196.9 2.4158
11221.1 2.4214
11245.5 2.4202
11269.9 2.4194
11294.4 2.4299
11319.1 2.4546
11343.9 2.4363
11368.8 2.4092
11393.7 2.3857
11418.8 2.3743
11444 2.3542
11469.4 2.3550
11494.8 2.3293
11520.3 2.3257
11546 2.3328
11571.8 2.3027
11597.7 2.2402
11623.7 2.2290
11649.8 2.2014
11676 2.2143
11702.4 2.2241
11728.9 2.2009
11755.5 2.1487
11782.2 2.1108
11809 2.1001
11836 2.1186
11863.1 2.0903
11890.3 2.0349
11917.6 2.0217
11945 2.0100
11972.6 1.9817
12000.3 1.9497
12028.2 1.9050
12056.2 1.8589
12084.3 1.8374
12112.5 1.8342
12140.9 1.7815
12169.4 1.7598
12198 1.7202
12226.8 1.6460
12255.7 1.6040
12284.7 1.5737
12313.9 1.5332
12343.2 1.5019
12372.7 1.4697
12402.3 1.4856
12432 1.4622
12461.9 1.4714
12491.9 1.5146
12522.1 1.5500
12552.4 1.5298
12582.9 1.4863
12613.5 1.4697
12644.3 1.4629
12675.2 1.4570
12706.3 1.5188
12737.5 1.5381
12768.8 1.5403
12800.4 1.5530
12832.1 1.5583
12863.9 1.5586
12895.9 1.5547
12928.1 1.4971
12960.4 1.4648
12992.9 1.5112
13025.5 1.5735
13058.3 1.5945
13091.3 1.5344
13124.4 1.4917
13157.7 1.5286
13191.2 1.4614
13224.9 1.4187
13258.7 1.4092
13292.7 1.4187
13326.9 1.4624
13361.2 1.4983
13395.7 1.4990
13430.4 1.5369
13465.3 1.5261
13500.4 1.5049
13535.6 1.4741
13571.1 1.4587
13606.7 1.4297
13642.5 1.3647
13678.5 1.2756
13714.7 1.3428
13751.1 1.4065
13787.6 1.3669
13824.4 1.3508
13861.4 1.4338
13898.5 1.4319
13935.9 1.3623
13973.4 1.2766
14011.2 1.3071
