# Soil optical properties : Light yellowish brown clay
# Colums : Wavelength(nm) Reflectance(%) Transmitance(%)
#
300 14.3928
400 14.3928
401 14.7918
402 14.7352
403 14.9565
404 14.9191
405 15.0582
406 15.1845
407 15.4366
408 15.5556
409 15.5421
410 15.6469
411 15.9802
412 16.1119
413 16.2854
414 16.4171
415 16.4478
416 16.7829
417 17.1004
418 17.1004
419 17.1694
420 17.3708
421 17.6561
422 17.9787
423 17.8088
424 18.2016
425 18.3996
426 18.6887
427 18.7917
428 18.9265
429 18.9965
430 19.1582
431 19.6381
432 19.8602
433 19.5339
434 20.2324
435 20.2543
436 20.3970
437 20.5622
438 21.0583
439 20.9540
440 21.4080
441 21.6954
442 21.8597
443 21.9659
444 22.0594
445 22.3603
446 22.3349
447 22.4270
448 22.7518
449 23.1861
450 23.1183
451 23.3810
452 23.7312
453 23.6349
454 23.6624
455 23.6761
456 23.6642
457 24.2162
458 24.1605
459 23.8033
460 24.0956
461 24.5445
462 24.2996
463 24.7919
464 24.6757
465 24.7172
466 24.7023
467 24.7880
468 24.9579
469 25.0845
470 25.2106
471 25.3823
472 25.6128
473 25.3952
474 25.6963
475 25.6128
476 25.7121
477 26.1031
478 25.9257
479 26.2171
480 25.7480
481 25.9735
482 26.4774
483 26.5911
484 26.7900
485 26.7352
486 26.8315
487 26.7517
488 27.0156
489 26.9653
490 27.2236
491 27.3358
492 27.5676
493 28.0087
494 28.1914
495 28.0685
496 28.1804
497 28.3681
498 28.4595
499 28.5889
500 28.9200
501 29.2178
502 29.1245
503 29.2539
504 29.4205
505 29.4758
506 29.6592
507 29.9711
508 30.4326
509 30.4187
510 30.5098
511 30.4145
512 30.8315
513 30.9686
514 31.2641
515 31.3143
516 31.1606
517 31.3642
518 31.4627
519 31.8290
520 32.0461
521 32.5542
522 32.6216
523 32.6682
524 32.7556
525 33.4907
526 33.2479
527 33.6114
528 33.8253
529 33.8897
530 34.0383
531 34.7083
532 34.8544
533 34.8764
534 34.9363
535 34.9582
536 35.5669
537 35.9918
538 35.5385
539 35.4716
540 35.8567
541 36.3606
542 36.0607
543 36.1884
544 36.7237
545 37.0254
546 37.0955
547 37.1064
548 37.5857
549 37.6671
550 37.9248
551 38.0238
552 38.1127
553 38.3989
554 38.4781
555 38.5093
556 38.5165
557 38.8888
558 38.7077
559 39.2955
560 40.5245
561 40.7970
562 40.8096
563 41.0281
564 41.0260
565 40.7553
566 40.8577
567 40.8835
568 41.3042
569 41.3042
570 41.7196
571 41.7996
572 41.8688
573 42.1428
574 42.3945
575 42.5882
576 42.6997
577 42.7556
578 43.0366
579 42.8604
580 42.9088
581 43.1174
582 42.9650
583 43.2020
584 43.7350
585 43.6958
586 43.6568
587 44.2312
588 44.1073
589 43.7141
590 44.1483
591 44.1073
592 44.4205
593 45.0740
594 44.8803
595 44.5260
596 44.1183
597 44.2550
598 44.5307
599 44.2837
600 44.2025
601 44.0212
602 44.0101
603 44.2002
604 44.3728
605 44.4244
606 44.5955
607 44.3764
608 44.4760
609 44.6385
610 44.4201
611 44.3365
612 44.6103
613 44.8793
614 44.8008
615 44.7010
616 44.8859
617 44.9713
618 45.2722
619 45.4301
620 45.3588
621 45.2874
622 45.2007
623 45.0427
624 45.1214
625 45.0849
626 45.1417
627 45.3703
628 45.1267
629 45.2691
630 45.2571
631 44.8302
632 44.6747
633 44.8020
634 45.0706
635 45.1417
636 45.4254
637 45.2112
638 45.3815
639 45.8372
640 46.0112
641 46.2272
642 45.9359
643 46.1508
644 46.1394
645 46.2091
646 46.0520
647 46.2091
648 45.6102
649 45.7917
650 46.0056
651 46.1217
652 46.5240
653 46.6034
654 46.5741
655 46.8397
656 46.3702
657 46.8203
658 47.1384
659 46.7267
660 46.5799
661 46.9180
662 46.6236
663 46.6921
664 46.2262
665 46.6819
666 47.1122
667 47.1712
668 47.3879
669 47.2303
670 46.9068
671 47.1513
672 47.5159
673 47.4861
674 47.3377
675 47.6626
676 47.1902
677 47.1021
678 47.4148
679 47.6224
680 48.2516
681 48.1341
682 48.0807
683 47.9675
684 47.9526
685 47.7147
686 47.8631
687 48.0124
688 47.8929
689 47.6769
690 47.9227
691 47.9825
692 48.4911
693 48.2694
694 48.5819
695 48.7954
696 48.5213
697 48.6369
698 48.9747
699 50.1950
700 48.7587
701 49.0331
702 48.9682
703 48.9082
704 48.9368
705 48.7876
706 49.0078
707 49.2870
708 49.1068
709 49.1068
710 49.1710
711 49.0172
712 49.3852
713 49.5095
714 49.4492
715 49.2950
716 49.2309
717 49.8215
718 49.9432
719 50.2534
720 50.0676
721 49.8218
722 49.8854
723 49.7645
724 49.6108
725 49.6443
726 49.6762
727 50.0455
728 50.1669
729 50.2277
730 50.4738
731 50.5681
732 50.1986
733 50.3204
734 50.2633
735 50.4152
736 50.5375
737 50.7535
738 50.9383
739 50.6306
740 50.9088
741 50.5999
742 50.8784
743 50.6946
744 50.9403
745 50.7572
746 50.9411
747 51.0022
748 50.4261
749 50.5165
750 50.9436
751 51.0328
752 51.0942
753 50.9106
754 50.8521
755 51.4970
756 51.5279
757 51.3734
758 51.0689
759 51.0666
760 51.0669
761 51.0365
762 51.2502
763 51.3115
764 52.0183
765 51.6800
766 51.4065
767 51.3758
768 51.2498
769 51.5863
770 51.9566
771 51.8027
772 51.8944
773 51.7098
774 52.0131
775 51.7717
776 51.5546
777 51.4060
778 51.2845
779 51.0728
780 51.5537
781 52.3822
782 51.9230
783 51.7696
784 51.8949
785 52.2658
786 52.2636
787 52.2948
788 51.9861
789 51.8013
790 51.5266
791 51.3149
792 51.9244
793 52.2013
794 51.6881
795 51.8936
796 51.8936
797 51.7493
798 52.0263
799 52.0237
800 51.5365
804 51.1827
808 51.2115
812 51.2389
816 51.4127
820 51.0737
824 50.9220
828 50.9301
832 50.7789
836 51.0083
840 50.5995
844 51.0442
848 50.5711
852 50.6650
856 50.1982
860 50.2642
864 49.9288
868 50.0630
872 49.9531
876 50.0185
880 49.8000
884 49.6532
888 49.6103
892 49.4534
896 49.4336
900 49.3852
904 49.4619
908 49.6599
912 49.4735
916 49.3294
920 49.3029
924 49.3735
928 49.4057
932 49.5759
936 49.4910
940 49.6615
944 49.5291
948 49.6615
952 49.9076
956 50.1690
960 50.0888
964 49.7813
968 49.7285
972 50.0900
976 49.9841
980 50.0477
984 50.2803
988 50.3269
992 50.4345
996 50.4596
1000 50.3269
1004 50.6025
1008 50.8082
1012 50.6653
1016 50.6745
1020 50.8259
1024 50.9952
1028 50.7902
1032 51.0102
1036 50.8777
1040 50.8521
1044 51.8198
1048 51.6014
1052 51.0120
1056 50.9138
1060 51.0878
1064 51.0956
1068 50.7284
1072 50.9571
1076 50.9100
1080 50.5886
1084 50.9918
1088 51.1246
1092 51.4608
1096 51.5116
1100 51.6327
1104 51.2848
1108 51.3521
1112 51.4386
1116 51.7120
1120 51.5118
1124 51.6789
1128 51.8133
1132 51.6050
1136 52.1657
1140 52.1333
1144 51.0314
1148 51.7810
1152 51.9434
1156 52.2100
1160 52.1660
1164 52.2429
1168 52.4240
1172 52.4548
1176 52.5349
1180 52.5885
1184 52.9883
1188 52.7929
1192 52.9284
1196 53.2062
1200 53.2335
1204 53.2873
1208 52.8983
1212 53.2609
1216 53.6225
1220 53.7081
1224 53.8763
1228 54.4335
1232 54.7166
1236 54.4908
1240 54.7706
1244 54.7138
1248 54.5725
1252 54.6828
1256 54.7927
1260 54.8474
1264 55.2686
1268 55.8803
1272 56.0464
1276 56.0244
1280 56.1639
1284 56.2024
1288 56.1069
1292 56.2587
1296 56.1969
1300 56.1307
1304 56.1824
1308 56.2991
1312 56.2938
1316 56.0404
1320 55.8139
1324 55.7824
1328 55.9253
1332 56.2240
1336 56.5464
1340 56.6199
1344 56.6647
1348 56.9763
1352 56.5804
1356 56.6145
1360 56.8394
1364 57.0523
1368 56.5377
1372 56.0219
1376 55.5411
1380 55.4386
1384 54.8767
1388 54.0620
1392 53.1029
1396 52.2347
1400 51.5642
1404 50.6349
1408 50.0112
1412 50.0265
1416 50.4622
1420 51.0790
1424 51.9708
1428 52.6390
1432 52.9883
1436 53.4994
1440 53.9035
1444 54.2785
1448 54.3628
1452 54.5129
1456 55.1008
1460 55.4684
1464 55.7688
1468 55.9265
1472 56.4598
1476 56.9503
1480 57.0286
1484 57.0783
1488 57.4429
1492 57.4720
1496 57.6742
1500 58.2897
1504 58.2637
1508 58.2448
1512 58.6827
1516 58.7991
1520 58.6827
1524 58.8830
1528 58.9412
1532 59.5227
1536 59.5754
1540 59.6459
1544 59.4274
1548 59.4327
1552 59.6425
1556 59.8062
1560 60.3153
1564 60.2856
1568 60.3291
1572 60.6297
1576 60.8556
1580 60.8556
1584 61.0518
1588 60.8111
1592 60.6318
1596 60.7213
1600 61.1515
1604 61.2546
1608 61.3290
1612 61.2546
1616 60.7973
1620 60.7762
1624 61.0442
1628 61.1943
1632 61.3149
1636 61.2450
1640 61.6494
1644 61.3496
1648 61.4033
1652 61.5727
1656 61.8608
1660 61.5404
1664 61.7132
1668 61.6005
1672 61.4364
1676 61.5243
1680 61.5243
1684 61.6194
1688 61.7756
1692 62.2589
1696 62.1072
1700 61.5361
1704 61.6394
1708 61.9000
1712 61.9302
1716 61.6856
1720 61.6964
1724 61.7301
1728 61.5265
1732 61.6662
1736 61.5458
1740 61.8174
1744 61.5820
1748 61.3011
1752 61.3765
1756 61.3181
1760 61.5653
1764 61.4749
1768 61.1389
1772 61.3246
1776 61.3246
1780 61.0794
1784 60.7831
1788 60.8645
1792 60.5099
1796 60.3783
1800 60.5398
1804 60.4368
1808 60.5477
1812 60.7607
1816 60.7902
1820 60.6135
1824 60.5255
1828 60.5688
1832 60.4179
1836 60.6170
1840 60.3776
1844 60.1062
1848 59.7998
1852 58.9318
1856 58.2639
1860 57.5788
1864 55.9538
1868 54.2538
1872 52.3118
1876 50.0218
1880 47.5900
1884 45.2335
1888 42.5116
1892 40.3054
1896 38.1833
1900 36.9425
1904 36.7314
1908 37.0638
1912 37.8699
1916 38.6027
1920 39.3388
1924 40.0634
1928 40.7319
1932 41.3449
1936 41.9748
1940 42.3314
1944 42.6596
1948 43.2411
1952 43.5874
1956 43.9753
1960 44.5899
1964 45.4329
1968 45.7510
1972 45.9026
1976 46.4886
1980 47.0848
1984 47.8984
1988 48.2474
1992 48.6275
1996 49.0682
2000 49.4338
2004 49.8037
2008 50.2050
2012 50.5069
2016 50.9631
2020 51.0194
2024 51.4964
2028 51.5995
2032 51.8775
2036 51.4139
2040 51.7802
2044 52.0790
2048 51.8914
2052 51.9374
2056 51.8603
2060 51.8891
2064 52.0606
2068 51.6434
2072 51.5476
2076 51.2822
2079.5 51.6997
2080.3 51.7201
2081.2 51.7495
2082 51.7064
2082.8 51.7490
2083.7 51.7516
2084.5 51.7495
2085.3 51.7490
2086.2 51.7381
2087 51.7364
2087.9 51.7445
2088.7 51.7613
2089.5 51.7831
2090.4 51.8011
2091.2 51.8127
2092.1 51.8174
2092.9 51.8165
2093.8 51.8122
2094.6 51.8061
2095.5 51.7978
2096.3 51.7845
2097.1 51.7637
2098 51.7336
2098.8 51.6945
2099.7 51.6460
2100.5 51.5891
2101.4 51.5273
2102.3 51.4646
2103.1 51.4037
2104 51.3469
2104.8 51.2945
2105.7 51.2465
2106.5 51.1991
2107.4 51.1494
2108.2 51.0963
2109.1 51.0409
2110 50.9848
2110.8 50.9324
2111.7 50.8901
2112.5 50.8628
2113.4 50.8500
2114.3 50.8481
2115.1 50.8562
2116 50.8749
2116.8 50.9055
2117.7 50.9481
2118.6 51.0056
2119.4 51.0767
2120.3 51.1551
2121.2 51.2330
2122 51.3073
2122.9 51.3777
2123.8 51.4442
2124.7 51.5060
2125.5 51.5638
2126.4 51.6195
2127.3 51.6737
2128.1 51.7281
2129 51.7864
2129.9 51.8511
2130.8 51.9214
2131.6 51.9915
2132.5 52.0542
2133.4 52.1066
2134.3 52.1480
2135.2 52.1843
2136 52.2214
2136.9 52.2652
2137.8 52.3169
2138.7 52.3725
2139.6 52.4258
2140.4 52.4720
2141.3 52.5096
2142.2 52.5414
2143.1 52.5696
2144 52.5963
2144.9 52.6238
2145.8 52.6505
2146.6 52.6735
2147.5 52.6889
2148.4 52.6929
2149.3 52.6835
2150.2 52.6593
2151.1 52.6231
2152 52.5793
2152.9 52.5336
2153.8 52.4893
2154.7 52.4464
2155.6 52.4026
2156.5 52.3562
2157.4 52.3036
2158.3 52.2432
2159.2 52.1760
2160.1 52.1047
2161 52.0325
2161.9 51.9602
2162.8 51.8906
2163.7 51.8278
2164.6 51.7717
2165.5 51.7220
2166.4 51.6777
2167.3 51.6377
2168.2 51.6000
2169.1 51.5614
2170 51.5209
2170.9 51.4790
2171.8 51.4350
2172.7 51.3874
2173.6 51.3355
2174.6 51.2796
2175.5 51.2216
2176.4 51.1636
2177.3 51.1091
2178.2 51.0625
2179.1 51.0255
2180 50.9978
2181 50.9782
2181.9 50.9637
2182.8 50.9535
2183.7 50.9445
2184.6 50.9341
2185.6 50.9192
2186.5 50.8960
2187.4 50.8621
2188.3 50.8171
2189.3 50.7612
2190.2 50.6975
2191.1 50.6298
2192 50.5602
2193 50.4898
2193.9 50.4188
2194.8 50.3468
2195.7 50.2720
2196.7 50.1903
2197.6 50.0977
2198.5 49.9916
2199.5 49.8717
2200.4 49.7389
2201.3 49.5956
2202.3 49.4469
2203.2 49.2977
2204.1 49.1516
2205.1 49.0116
2206 48.8835
2207 48.7736
2207.9 48.6858
2208.8 48.6221
2209.8 48.5821
2210.7 48.5626
2211.7 48.5584
2212.6 48.5636
2213.6 48.5754
2214.5 48.5918
2215.5 48.6117
2216.4 48.6346
2217.3 48.6609
2218.3 48.6896
2219.2 48.7189
2220.2 48.7488
2221.1 48.7791
2222.1 48.8103
2223.1 48.8433
2224 48.8807
2225 48.9226
2225.9 48.9664
2226.9 49.0071
2227.8 49.0410
2228.8 49.0661
2229.7 49.0836
2230.7 49.0978
2231.7 49.1137
2232.6 49.1345
2233.6 49.1580
2234.5 49.1779
2235.5 49.1881
2236.5 49.1855
2237.4 49.1712
2238.4 49.1490
2239.4 49.1265
2240.3 49.1097
2241.3 49.1012
2242.3 49.0993
2243.3 49.1002
2244.2 49.0993
2245.2 49.0931
2246.2 49.0801
2247.1 49.0618
2248.1 49.0410
2249.1 49.0216
2250.1 49.0083
2251 49.0024
2252 49.0048
2253 49.0145
2254 49.0296
2255 49.0483
2255.9 49.0699
2256.9 49.0952
2257.9 49.1253
2258.9 49.1594
2259.9 49.1954
2260.9 49.2295
2261.8 49.2577
2262.8 49.2773
2263.8 49.2887
2264.8 49.2949
2265.8 49.2979
2266.8 49.3001
2267.8 49.3015
2268.8 49.2998
2269.8 49.2885
2270.8 49.2610
2271.8 49.2139
2272.8 49.1461
2273.8 49.0597
2274.7 48.9600
2275.7 48.8523
2276.7 48.7398
2277.7 48.6214
2278.7 48.4958
2279.8 48.3623
2280.8 48.2190
2281.8 48.0651
2282.8 47.8991
2283.8 47.7196
2284.8 47.5268
2285.8 47.3231
2286.8 47.1147
2287.8 46.9099
2288.8 46.7152
2289.8 46.5348
2290.8 46.3697
2291.8 46.2177
2292.9 46.0754
2293.9 45.9401
2294.9 45.8101
2295.9 45.6856
2296.9 45.5664
2297.9 45.4540
2299 45.3502
2300 45.2548
2301 45.1660
2302 45.0798
2303 44.9933
2304.1 44.9043
2305.1 44.8112
2306.1 44.7160
2307.1 44.6225
2308.2 44.5346
2309.2 44.4574
2310.2 44.3982
2311.3 44.3660
2312.3 44.3677
2313.3 44.4058
2314.4 44.4771
2315.4 44.5711
2316.4 44.6746
2317.5 44.7743
2318.5 44.8640
2319.5 44.9436
2320.6 45.0142
2321.6 45.0781
2322.6 45.1328
2323.7 45.1738
2324.7 45.1968
2325.8 45.1991
2326.8 45.1842
2327.9 45.1572
2328.9 45.1217
2330 45.0795
2331 45.0301
2332.1 44.9720
2333.1 44.9055
2334.2 44.8323
2335.2 44.7565
2336.3 44.6807
2337.3 44.6066
2338.4 44.5342
2339.4 44.4626
2340.5 44.3906
2341.5 44.3184
2342.6 44.2467
2343.6 44.1773
2344.7 44.1119
2345.8 44.0520
2346.8 43.9980
2347.9 43.9487
2349 43.9026
2350 43.8585
2351.1 43.8166
2352.2 43.7775
2353.2 43.7404
2354.3 43.7036
2355.4 43.6648
2356.4 43.6210
2357.5 43.5715
2358.6 43.5173
2359.7 43.4611
2360.7 43.4050
2361.8 43.3484
2362.9 43.2911
2364 43.2312
2365 43.1682
2366.1 43.1033
2367.2 43.0394
2368.3 42.9788
2369.4 42.9238
2370.4 42.8743
2371.5 42.8284
2372.6 42.7817
2373.7 42.7310
2374.8 42.6742
2375.9 42.6105
2377 42.5409
2378.1 42.4684
2379.1 42.3964
2380.2 42.3261
2381.3 42.2576
2382.4 42.1916
2383.5 42.1288
2384.6 42.0689
2385.7 42.0128
2386.8 41.9609
2387.9 41.9128
2389 41.8650
2390.1 41.8143
2391.2 41.7589
2392.3 41.6969
2393.4 41.6280
2394.5 41.5526
2395.6 41.4731
2396.7 41.3897
2397.9 41.3033
2399 41.2135
2400.1 41.1200
2401.2 41.0224
2402.3 40.9206
2403.4 40.8152
2404.5 40.7079
2405.6 40.5990
2406.8 40.4867
2407.9 40.3681
2409 40.2400
2410.1 40.0995
2411.2 39.9456
2412.4 39.7798
2413.5 39.6067
2414.6 39.4310
2415.7 39.2558
2416.9 39.0850
2418 38.9209
2419.1 38.7639
2420.2 38.6123
2421.4 38.4636
2422.5 38.3163
2423.6 38.1707
2424.8 38.0279
2425.9 37.8908
2427 37.7622
2428.2 37.6438
2429.3 37.5339
2430.5 37.4292
2431.6 37.3288
2432.7 37.2317
2433.9 37.1386
2435 37.0510
2436.2 36.9693
2437.3 36.8914
2438.5 36.8135
2439.6 36.7313
2440.8 36.6423
2441.9 36.5457
2443.1 36.4412
2444.2 36.3301
2445.4 36.2132
2446.5 36.0914
2447.7 35.9655
2448.8 35.8369
2450 35.7085
2451.1 35.5837
2452.3 35.4636
2453.5 35.3483
2454.6 35.2358
2455.8 35.1222
2456.9 35.0040
2458.1 34.8799
2459.3 34.7508
2460.4 34.6213
2461.6 34.4960
2462.8 34.3783
2464 34.2696
2465.1 34.1687
2466.3 34.0728
2467.5 33.9788
2468.6 33.8841
2469.8 33.7891
2471 33.6942
2472.2 33.5990
2473.4 33.5028
2474.5 33.4050
2475.7 33.3051
2476.9 33.2035
2478.1 33.1028
2479.3 33.0067
2480.5 32.9183
2481.6 32.8376
2482.8 32.7628
2484 32.6905
2485.2 32.6176
2486.4 32.5428
2487.6 32.4672
2488.8 32.3947
2490 32.3275
2491.2 32.2666
2492.4 32.2112
2493.6 32.1596
2494.8 32.1101
2496 32.0632
2497.2 32.0206
2498.4 31.9836
2499.6 31.9521
2500.8 31.9242
2502 31.8974
2503.2 31.8700
2504.4 31.8418
2505.6 31.8134
2506.8 31.7868
2508.1 31.7634
2509.3 31.7426
2510.5 31.7220
2511.7 31.6999
2512.9 31.6746
2514.1 31.6455
2515.4 31.6121
2516.6 31.5761
2517.8 31.5382
2519 31.5001
2520.2 31.4626
2521.5 31.4271
2522.7 31.3930
2523.9 31.3594
2525.2 31.3239
2526.4 31.2836
2527.6 31.2341
2528.9 31.1728
2530.1 31.1027
2531.3 31.0300
2532.6 30.9627
2533.8 30.9111
2535 30.8815
2536.3 30.8737
2537.5 30.8789
2538.8 30.8860
2540 30.8905
2541.3 30.8940
2542.5 30.9007
2543.7 30.9149
2545 30.9400
2546.2 30.9727
2547.5 31.0044
2548.7 31.0323
2550 31.0693
2551.3 31.1313
2552.5 31.2246
2553.8 31.3357
2555 31.4323
2556.3 31.4740
2557.5 31.4335
2558.8 31.3168
2560.1 31.1683
2561.3 31.0537
2562.6 31.0236
2563.9 31.0887
2565.1 31.2159
2566.4 31.3475
2567.7 31.4323
2569 31.4382
2570.2 31.3757
2571.5 31.2936
2572.8 31.2367
2574.1 31.2294
2575.3 31.2677
2576.6 31.3232
2577.9 31.3563
2579.2 31.3191
2580.5 31.2019
2581.7 31.0484
2583 30.9139
2584.3 30.8464
2585.6 30.8580
2586.9 30.9099
2588.2 30.9253
2589.5 30.8114
2590.8 30.5350
2592.1 30.1736
2593.4 29.8599
2594.7 29.7135
2596 29.7824
2597.3 30.0211
2598.6 30.3048
2599.9 30.4780
2601.2 30.4417
2602.5 30.2288
2603.8 29.9555
2605.1 29.7407
2606.4 29.6602
2607.7 29.7265
2609 29.8809
2610.3 30.0166
2611.7 30.0313
2613 29.8959
2614.3 29.6510
2615.6 29.3569
2616.9 29.0916
2618.3 28.9299
2619.6 28.8922
2620.9 28.9368
2622.2 28.9784
2623.6 28.9526
2624.9 28.8292
2626.2 28.6000
2627.5 28.3191
2628.9 28.0733
2630.2 27.9196
2631.5 27.8754
2632.9 27.9177
2634.2 28.0065
2635.6 28.0819
2636.9 28.0840
2638.2 27.9990
2639.6 27.8415
2640.9 27.6317
2642.3 27.4022
2643.6 27.1824
2645 26.9852
2646.3 26.8002
2647.7 26.6074
2649 26.3955
2650.4 26.1610
2651.7 25.9098
2653.1 25.6659
2654.5 25.4416
2655.8 25.2301
2657.2 25.0122
2658.5 24.7577
2659.9 24.4275
2661.3 23.9980
2662.6 23.4841
2664 22.9394
2665.4 22.4160
2666.7 21.9625
2668.1 21.6213
2669.5 21.3897
2670.9 21.2116
2672.2 21.0174
2673.6 20.7633
2675 20.4344
2676.4 20.0308
2677.8 19.5766
2679.1 19.1110
2680.5 18.6507
2681.9 18.1865
2683.3 17.7027
2684.7 17.1893
2686.1 16.6392
2687.5 16.0481
2688.9 15.4158
2690.3 14.7513
2691.7 14.0697
2693.1 13.3851
2694.5 12.7078
2695.9 12.0437
2697.3 11.3958
2698.7 10.7692
2700.1 10.1686
2701.5 9.6088
2702.9 9.1096
2704.3 8.6817
2705.7 8.3236
2707.1 8.0250
2708.5 7.7732
2710 7.5532
2711.4 7.3489
2712.8 7.1464
2714.2 6.9340
2715.6 6.7019
2717.1 6.4506
2718.5 6.1942
2719.9 5.9531
2721.3 5.7475
2722.8 5.5872
2724.2 5.4674
2725.6 5.3719
2727.1 5.2791
2728.5 5.1723
2729.9 5.0411
2731.4 4.8841
2732.8 4.7084
2734.3 4.5227
2735.7 4.3359
2737.1 4.1571
2738.6 3.9951
2740 3.8549
2741.5 3.7362
2742.9 3.6351
2744.4 3.5447
2745.8 3.4556
2747.3 3.3604
2748.8 3.2583
2750.2 3.1527
2751.7 3.0502
2753.1 2.9600
2754.6 2.8873
2756.1 2.8335
2757.5 2.7954
2759 2.7684
2760.5 2.7475
2761.9 2.7267
2763.4 2.7028
2764.9 2.6751
2766.4 2.6426
2767.8 2.6069
2769.3 2.5725
2770.8 2.5460
2772.3 2.5339
2773.8 2.5401
2775.2 2.5645
2776.7 2.6036
2778.2 2.6504
2779.7 2.6980
2781.2 2.7411
2782.7 2.7769
2784.2 2.8046
2785.7 2.8250
2787.2 2.8397
2788.7 2.8506
2790.2 2.8600
2791.7 2.8697
2793.2 2.8797
2794.7 2.8880
2796.2 2.8922
2797.7 2.8899
2799.2 2.8804
2800.7 2.8655
2802.2 2.8491
2803.8 2.8366
2805.3 2.8318
2806.8 2.8366
2808.3 2.8496
2809.8 2.8671
2811.4 2.8861
2812.9 2.9029
2814.4 2.9152
2815.9 2.9221
2817.5 2.9242
2819 2.9223
2820.5 2.9180
2822.1 2.9128
2823.6 2.9102
2825.2 2.9128
2826.7 2.9209
2828.2 2.9318
2829.8 2.9417
2831.3 2.9465
2832.9 2.9443
2834.4 2.9370
2836 2.9301
2837.5 2.9292
2839.1 2.9372
2840.6 2.9529
2842.2 2.9720
2843.7 2.9905
2845.3 3.0054
2846.9 3.0161
2848.4 3.0251
2850 3.0357
2851.6 3.0495
2853.1 3.0663
2854.7 3.0852
2856.3 3.1051
2857.9 3.1238
2859.4 3.1397
2861 3.1537
2862.6 3.1667
2864.2 3.1788
2865.8 3.1899
2867.3 3.2003
2868.9 3.2098
2870.5 3.2171
2872.1 3.2221
2873.7 3.2266
2875.3 3.2318
2876.9 3.2389
2878.5 3.2477
2880.1 3.2576
2881.7 3.2673
2883.3 3.2752
2884.9 3.2785
2886.5 3.2754
2888.1 3.2666
2889.7 3.2557
2891.3 3.2465
2892.9 3.2420
2894.6 3.2427
2896.2 3.2484
2897.8 3.2555
2899.4 3.2607
2901 3.2645
2902.7 3.2695
2904.3 3.2773
2905.9 3.2889
2907.5 3.3019
2909.2 3.3140
2910.8 3.3223
2912.4 3.3261
2914.1 3.3266
2915.7 3.3266
2917.4 3.3292
2919 3.3360
2920.7 3.3467
2922.3 3.3590
2923.9 3.3715
2925.6 3.3817
2927.2 3.3886
2928.9 3.3919
2930.6 3.3936
2932.2 3.3962
2933.9 3.4016
2935.5 3.4109
2937.2 3.4251
2938.9 3.4428
2940.5 3.4627
2942.2 3.4826
2943.9 3.4999
2945.5 3.5141
2947.2 3.5238
2948.9 3.5290
2950.6 3.5314
2952.3 3.5321
2953.9 3.5338
2955.6 3.5376
2957.3 3.5451
2959 3.5570
2960.7 3.5724
2962.4 3.5897
2964.1 3.6084
2965.8 3.6287
2967.5 3.6503
2969.2 3.6723
2970.9 3.6939
2972.6 3.7152
2974.3 3.7360
2976 3.7557
2977.7 3.7746
2979.4 3.7943
2981.1 3.8142
2982.8 3.8336
2984.5 3.8530
2986.3 3.8738
2988 3.8963
2989.7 3.9188
2991.4 3.9397
2993.2 3.9574
2994.9 3.9714
2996.6 3.9823
2998.4 3.9927
3000.1 4.0062
3001.8 4.0233
3003.6 4.0429
3005.3 4.0626
3007 4.0810
3008.8 4.0976
3010.5 4.1137
3012.3 4.1313
3014 4.1504
3015.8 4.1701
3017.6 4.1876
3019.3 4.2013
3021.1 4.2115
3022.8 4.2203
3024.6 4.2314
3026.4 4.2478
3028.1 4.2696
3029.9 4.2951
3031.7 4.3224
3033.4 4.3472
3035.2 4.3664
3037 4.3787
3038.8 4.3849
3040.6 4.3872
3042.3 4.3880
3044.1 4.3901
3045.9 4.3958
3047.7 4.4045
3049.5 4.4152
3051.3 4.4263
3053.1 4.4370
3054.9 4.4474
3056.7 4.4590
3058.5 4.4732
3060.3 4.4905
3062.1 4.5094
3063.9 4.5298
3065.7 4.5490
3067.5 4.5658
3069.4 4.5812
3071.2 4.5973
3073 4.6155
3074.8 4.6359
3076.6 4.6582
3078.5 4.6800
3080.3 4.6972
3082.1 4.7086
3084 4.7157
3085.8 4.7214
3087.6 4.7304
3089.5 4.7463
3091.3 4.7702
3093.2 4.8005
3095 4.8334
3096.9 4.8651
3098.7 4.8926
3100.6 4.9144
3102.4 4.9319
3104.3 4.9478
3106.1 4.9653
3108 4.9871
3109.9 5.0139
3111.7 5.0454
3113.6 5.0790
3115.5 5.1110
3117.4 5.1399
3119.2 5.1645
3121.1 5.1858
3123 5.2054
3124.9 5.2256
3126.8 5.2481
3128.6 5.2739
3130.5 5.3018
3132.4 5.3312
3134.3 5.3599
3136.2 5.3871
3138.1 5.4122
3140 5.4354
3141.9 5.4579
3143.8 5.4811
3145.7 5.5062
3147.6 5.5334
3149.5 5.5628
3151.5 5.5943
3153.4 5.6263
3155.3 5.6580
3157.2 5.6900
3159.1 5.7219
3161.1 5.7537
3163 5.7854
3164.9 5.8176
3166.9 5.8501
3168.8 5.8808
3170.7 5.9097
3172.7 5.9377
3174.6 5.9654
3176.6 5.9933
3178.5 6.0234
3180.5 6.0566
3182.4 6.0914
3184.4 6.1245
3186.3 6.1546
3188.3 6.1818
3190.2 6.2065
3192.2 6.2304
3194.2 6.2571
3196.1 6.2875
3198.1 6.3199
3200.1 6.3526
3202.1 6.3843
3204 6.4153
3206 6.4461
3208 6.4776
3210 6.5110
3212 6.5449
3214 6.5776
3216 6.6079
3218 6.6361
3220 6.6640
3222 6.6934
3224 6.7244
3226 6.7575
3228 6.7914
3230 6.8250
3232 6.8572
3234 6.8871
3236.1 6.9145
3238.1 6.9397
3240.1 6.9619
3242.1 6.9823
3244.2 7.0029
3246.2 7.0261
3248.2 7.0531
3250.3 7.0848
3252.3 7.1213
3254.3 7.1611
3256.4 7.2016
3258.4 7.2397
3260.5 7.2731
3262.5 7.3001
3264.6 7.3212
3266.6 7.3387
3268.7 7.3564
3270.8 7.3778
3272.8 7.4040
3274.9 7.4348
3277 7.4675
3279 7.5000
3281.1 7.5317
3283.2 7.5627
3285.3 7.5935
3287.4 7.6257
3289.4 7.6605
3291.5 7.6972
3293.6 7.7342
3295.7 7.7699
3297.8 7.8036
3299.9 7.8343
3302 7.8628
3304.1 7.8905
3306.2 7.9210
3308.3 7.9551
3310.4 7.9930
3312.6 8.0330
3314.7 8.0731
3316.8 8.1112
3318.9 8.1472
3321 8.1815
3323.2 8.2142
3325.3 8.2447
3327.4 8.2722
3329.6 8.2947
3331.7 8.3089
3333.9 8.3127
3336 8.3044
3338.2 8.2845
3340.3 8.2552
3342.5 8.2215
3344.6 8.1919
3346.8 8.1730
3348.9 8.1694
3351.1 8.1829
3353.3 8.2114
3355.4 8.2511
3357.6 8.2976
3359.8 8.3470
3362 8.3982
3364.1 8.4496
3366.3 8.4991
3368.5 8.5448
3370.7 8.5853
3372.9 8.6210
3375.1 8.6530
3377.3 8.6843
3379.5 8.7174
3381.7 8.7546
3383.9 8.7953
3386.1 8.8387
3388.3 8.8823
3390.6 8.9242
3392.8 8.9630
3395 8.9992
3397.2 9.0329
3399.4 9.0655
3401.7 9.0980
3403.9 9.1302
3406.1 9.1612
3408.4 9.1911
3410.6 9.2207
3412.9 9.2522
3415.1 9.2872
3417.4 9.3268
3419.6 9.3701
3421.9 9.4151
3424.1 9.4589
3426.4 9.4996
3428.7 9.5389
3430.9 9.5785
3433.2 9.6204
3435.5 9.6656
3437.8 9.7130
3440 9.7601
3442.3 9.8039
3444.6 9.8423
3446.9 9.8745
3449.2 9.9010
3451.5 9.9228
3453.8 9.9403
3456.1 9.9524
3458.4 9.9569
3460.7 9.9510
3463 9.9313
3465.3 9.8968
3467.7 9.8492
3470 9.7954
3472.3 9.7447
3474.6 9.7076
3477 9.6924
3479.3 9.7045
3481.6 9.7433
3484 9.8054
3486.3 9.8837
3488.7 9.9718
3491 10.0630
3493.4 10.1530
3495.7 10.2390
3498.1 10.3211
3500.4 10.4014
3502.8 10.4831
3505.2 10.5693
3507.5 10.6624
3509.9 10.7635
3512.3 10.8720
3514.7 10.9880
3517.1 11.1102
3519.5 11.2376
3521.8 11.3679
3524.2 11.4976
3526.6 11.6232
3529 11.7409
3531.4 11.8488
3533.8 11.9469
3536.3 12.0369
3538.7 12.1205
3541.1 12.1993
3543.5 12.2744
3545.9 12.3471
3548.4 12.4179
3550.8 12.4873
3553.2 12.5553
3555.7 12.6213
3558.1 12.6836
3560.5 12.7395
3563 12.7895
3565.4 12.8357
3567.9 12.8825
3570.4 12.9346
3572.8 12.9955
3575.3 13.0658
3577.7 13.1416
3580.2 13.2183
3582.7 13.2918
3585.2 13.3600
3587.6 13.4234
3590.1 13.4843
3592.6 13.5456
3595.1 13.6086
3597.6 13.6740
3600.1 13.7398
3602.6 13.8049
3605.1 13.8677
3607.6 13.9274
3610.1 13.9844
3612.7 14.0394
3615.2 14.0931
3617.7 14.1471
3620.2 14.2016
3622.7 14.2568
3625.3 14.3122
3627.8 14.3679
3630.4 14.4235
3632.9 14.4789
3635.5 14.5334
3638 14.5874
3640.6 14.6402
3643.1 14.6918
3645.7 14.7423
3648.2 14.7918
3650.8 14.8412
3653.4 14.8915
3656 14.9428
3658.5 14.9971
3661.1 15.0530
3663.7 15.1103
3666.3 15.1676
3668.9 15.2235
3671.5 15.2779
3674.1 15.3305
3676.7 15.3824
3679.3 15.4340
3681.9 15.4861
3684.5 15.5387
3687.2 15.5915
3689.8 15.6438
3692.4 15.6959
3695 15.7480
3697.7 15.8001
3700.3 15.8520
3703 15.9024
3705.6 15.9503
3708.3 15.9957
3710.9 16.0395
3713.6 16.0838
3716.2 16.1307
3718.9 16.1804
3721.6 16.2321
3724.2 16.2830
3726.9 16.3308
3729.6 16.3753
3732.3 16.4182
3735 16.4615
3737.7 16.5068
3740.4 16.5539
3743.1 16.6008
3745.8 16.6451
3748.5 16.6860
3751.2 16.7246
3753.9 16.7628
3756.6 16.8021
3759.4 16.8438
3762.1 16.8869
3764.8 16.9302
3767.6 16.9719
3770.3 17.0117
3773 17.0493
3775.8 17.0846
3778.5 17.1156
3781.3 17.1405
3784.1 17.1564
3786.8 17.1616
3789.6 17.1547
3792.4 17.1367
3795.1 17.1085
3797.9 17.0704
3800.7 17.0230
3803.5 16.9674
3806.3 16.9041
3809.1 16.8359
3811.9 16.7649
3814.7 16.6936
3817.5 16.6216
3820.3 16.5475
3823.1 16.4691
3825.9 16.3846
3828.8 16.2951
3831.6 16.2046
3834.4 16.1177
3837.3 16.0400
3840.1 15.9744
3843 15.9218
3845.8 15.8811
3848.7 15.8513
3851.5 15.8318
3854.4 15.8219
3857.3 15.8195
3860.1 15.8238
3863 15.8318
3865.9 15.8416
3868.8 15.8513
3871.7 15.8605
3874.6 15.8693
3877.5 15.8766
3880.4 15.8818
3883.3 15.8842
3886.2 15.8839
3889.1 15.8809
3892 15.8757
3894.9 15.8688
3897.9 15.8591
3900.8 15.8453
3903.7 15.8264
3906.7 15.8008
3909.6 15.7684
3912.6 15.7284
3915.5 15.6815
3918.5 15.6294
3921.4 15.5735
3924.4 15.5140
3927.4 15.4468
3930.4 15.3632
3933.3 15.2479
3936.3 15.0854
3939.3 14.8642
3942.3 14.5829
3945.3 14.2502
3948.3 13.8845
3951.3 13.5094
3954.4 13.1487
3957.4 12.8200
3960.4 12.5347
3963.4 12.2969
3966.5 12.1053
3969.5 11.9556
3972.5 11.8436
3975.6 11.7695
3978.6 11.7392
3981.7 11.7636
3984.7 11.8555
3987.8 12.0253
3990.9 12.2775
3994 12.6081
3997 13.0043
4000.1 13.4457
4003.2 13.9101
4006.3 14.3738
4009.4 14.8164
4012.5 15.2209
4015.6 15.5780
4018.7 15.8858
4021.8 16.1480
4025 16.3723
4028.1 16.5683
4031.2 16.7462
4034.4 16.9131
4037.5 17.0730
4040.6 17.2279
4043.8 17.3778
4047 17.5201
4050.1 17.6522
4053.3 17.7728
4056.5 17.8820
4059.6 17.9805
4062.8 18.0695
4066 18.1498
4069.2 18.2206
4072.4 18.2819
4075.6 18.3345
4078.8 18.3800
4082 18.4210
4085.2 18.4593
4088.4 18.4944
4091.7 18.5242
4094.9 18.5467
4098.1 18.5611
4101.4 18.5683
4104.6 18.5701
4107.9 18.5704
4111.1 18.5706
4114.4 18.5704
4117.7 18.5690
4120.9 18.5649
4124.2 18.5574
4127.5 18.5458
4130.8 18.5304
4134.1 18.5126
4137.4 18.4932
4140.7 18.4721
4144 18.4503
4147.3 18.4283
4150.6 18.4053
4154 18.3802
4157.3 18.3511
4160.6 18.3175
4164 18.2784
4167.3 18.2348
4170.7 18.1893
4174 18.1453
4177.4 18.1043
4180.8 18.0664
4184.1 18.0304
4187.5 17.9940
4190.9 17.9549
4194.3 17.9116
4197.7 17.8628
4201.1 17.8081
4204.5 17.7479
4207.9 17.6828
4211.3 17.6132
4214.8 17.5414
4218.2 17.4699
4221.6 17.4012
4225.1 17.3370
4228.5 17.2816
4232 17.2383
4235.4 17.2089
4238.9 17.1928
4242.4 17.1869
4245.8 17.1855
4249.3 17.1796
4252.8 17.1613
4256.3 17.1275
4259.8 17.0787
4263.3 17.0192
4266.8 16.9558
4270.3 16.8951
4273.8 16.8416
4277.4 16.7976
4280.9 16.7623
4284.4 16.7344
4288 16.7111
4291.5 16.6910
4295.1 16.6723
4298.6 16.6536
4302.2 16.6344
4305.8 16.6145
4309.4 16.5932
4312.9 16.5705
4316.5 16.5451
4320.1 16.5170
4323.7 16.4857
4327.3 16.4523
4331 16.4165
4334.6 16.3791
4338.2 16.3405
4341.8 16.3007
4345.5 16.2600
4349.1 16.2190
4352.8 16.1781
4356.4 16.1369
4360.1 16.0952
4363.8 16.0516
4367.4 16.0066
4371.1 15.9604
4374.8 15.9135
4378.5 15.8674
4382.2 15.8221
4385.9 15.7779
4389.6 15.7338
4393.4 15.6888
4397.1 15.6424
4400.8 15.5943
4404.5 15.5446
4408.3 15.4937
4412 15.4425
4415.8 15.3914
4419.6 15.3407
4423.3 15.2914
4427.1 15.2436
4430.9 15.1972
4434.7 15.1517
4438.5 15.1060
4442.3 15.0591
4446.1 15.0103
4449.9 14.9594
4453.7 14.9076
4457.6 14.8557
4461.4 14.8062
4465.2 14.7598
4469.1 14.7176
4473 14.6793
4476.8 14.6437
4480.7 14.6094
4484.6 14.5758
4488.4 14.5424
4492.3 14.5095
4496.2 14.4782
4500.1 14.4498
4504 14.4249
4508 14.4029
4511.9 14.3825
4515.8 14.3619
4519.7 14.3401
4523.7 14.3160
4527.6 14.2895
4531.6 14.2606
4535.6 14.2293
4539.5 14.1954
4543.5 14.1585
4547.5 14.1185
4551.5 14.0763
4555.5 14.0325
4559.5 13.9878
4563.5 13.9416
4567.5 13.8930
4571.6 13.8416
4575.6 13.7865
4579.6 13.7289
4583.7 13.6714
4587.7 13.6150
4591.8 13.5617
4595.9 13.5120
4600 13.4644
4604 13.4163
4608.1 13.3654
4612.2 13.3102
4616.3 13.2498
4620.5 13.1842
4624.6 13.1158
4628.7 13.0464
4632.8 12.9766
4637 12.9055
4641.1 12.8326
4645.3 12.7566
4649.5 12.6777
4653.6 12.5977
4657.8 12.5207
4662 12.4504
4666.2 12.3883
4670.4 12.3360
4674.6 12.2929
4678.8 12.2581
4683.1 12.2299
4687.3 12.2088
4691.5 12.1951
4695.8 12.1868
4700 12.1828
4704.3 12.1806
4708.6 12.1787
4712.9 12.1752
4717.2 12.1695
4721.5 12.1614
4725.8 12.1505
4730.1 12.1356
4734.4 12.1162
4738.7 12.0935
4743.1 12.0686
4747.4 12.0447
4751.7 12.0253
4756.1 12.0113
4760.5 12.0023
4764.8 11.9966
4769.2 11.9924
4773.6 11.9874
4778 11.9805
4782.4 11.9722
4786.8 11.9632
4791.3 11.9542
4795.7 11.9448
4800.1 11.9353
4804.6 11.9249
4809 11.9121
4813.5 11.8964
4818 11.8773
4822.5 11.8557
4827 11.8316
4831.5 11.8055
4836 11.7773
4840.5 11.7475
4845 11.7158
4849.5 11.6816
4854.1 11.6452
4858.6 11.6061
4863.2 11.5647
4867.8 11.5201
4872.3 11.4721
4876.9 11.4202
4881.5 11.3648
4886.1 11.3070
4890.7 11.2480
4895.3 11.1895
4900 11.1344
4904.6 11.0837
4909.2 11.0375
4913.9 10.9956
4918.6 10.9572
4923.2 10.9210
4927.9 10.8852
4932.6 10.8490
4937.3 10.8125
4942 10.7758
4946.7 10.7384
4951.4 10.7010
4956.2 10.6636
4960.9 10.6257
4965.7 10.5871
4970.4 10.5473
4975.2 10.5073
4980 10.4675
4984.8 10.4282
4989.6 10.3898
4994.4 10.3515
4999.2 10.3126
5004 10.2721
5008.8 10.2307
5013.7 10.1902
5018.5 10.1525
5023.4 10.1187
5028.3 10.0888
5033.2 10.0618
5038 10.0355
5043 10.0069
5047.9 9.9742
5052.8 9.9370
5057.7 9.8946
5062.7 9.8468
5067.6 9.7938
5072.6 9.7376
5077.5 9.6801
5082.5 9.6225
5087.5 9.5666
5092.5 9.5141
5097.5 9.4648
5102.5 9.4172
5107.5 9.3684
5112.6 9.3166
5117.6 9.2597
5122.7 9.1967
5127.7 9.1290
5132.8 9.0601
5137.9 8.9945
5143 8.9343
5148.1 8.8806
5153.2 8.8313
5158.4 8.7837
5163.5 8.7350
5168.6 8.6831
5173.8 8.6274
5179 8.5680
5184.2 8.5048
5189.3 8.4380
5194.5 8.3681
5199.8 8.2976
5205 8.2298
5210.2 8.1673
5215.4 8.1098
5220.7 8.0555
5226 8.0027
5231.2 7.9497
5236.5 7.8961
5241.8 7.8436
5247.1 7.7931
5252.4 7.7448
5257.8 7.6960
5263.1 7.6461
5268.4 7.5947
5273.8 7.5433
5279.2 7.4945
5284.6 7.4514
5290 7.4142
5295.4 7.3823
5300.8 7.3541
5306.2 7.3271
5311.6 7.2989
5317.1 7.2672
5322.5 7.2309
5328 7.1885
5333.5 7.1400
5339 7.0884
5344.5 7.0391
5350 6.9977
5355.5 6.9662
5361.1 6.9456
5366.6 6.9335
5372.2 6.9259
5377.8 6.9179
5383.3 6.9051
5388.9 6.8849
5394.5 6.8544
5400.2 6.8118
5405.8 6.7590
5411.4 6.7026
5417.1 6.6505
5422.8 6.6088
5428.4 6.5783
5434.1 6.5544
5439.8 6.5281
5445.5 6.4892
5451.3 6.4338
5457 6.3656
5462.8 6.2927
5468.5 6.2240
5474.3 6.1660
5480.1 6.1191
5485.9 6.0788
5491.7 6.0381
5497.5 5.9922
5503.3 5.9377
5509.2 5.8709
5515.1 5.7871
5520.9 5.6796
5526.8 5.5391
5532.7 5.3570
5538.6 5.1327
5544.5 4.8796
5550.5 4.6226
5556.4 4.3934
5562.4 4.2257
5568.4 4.1471
5574.4 4.1675
5580.4 4.2764
5586.4 4.4479
5592.4 4.6473
5598.4 4.8381
5604.5 4.9895
5610.6 5.0856
5616.6 5.1264
5622.7 5.1211
5628.8 5.0868
5634.9 5.0425
5641.1 5.0025
5647.2 4.9738
5653.4 4.9568
5659.6 4.9483
5665.7 4.9438
5671.9 4.9367
5678.2 4.9253
5684.4 4.9099
5690.6 4.8900
5696.9 4.8663
5703.1 4.8424
5709.4 4.8225
5715.7 4.8069
5722 4.7920
5728.3 4.7723
5734.7 4.7434
5741 4.7006
5747.4 4.6447
5753.8 4.5869
5760.2 4.5419
5766.6 4.5194
5773 4.5187
5779.4 4.5310
5785.9 4.5417
5792.3 4.5329
5798.8 4.4919
5805.3 4.4216
5811.8 4.3359
5818.4 4.2523
5824.9 4.1841
5831.4 4.1353
5838 4.0998
5844.6 4.0623
5851.2 4.0064
5857.8 3.9221
5864.4 3.8127
5871.1 3.6920
5877.7 3.5759
5884.4 3.4781
5891.1 3.4026
5897.8 3.3436
5904.5 3.2887
5911.2 3.2238
5918 3.1449
5924.7 3.0599
5931.5 2.9806
5938.3 2.9178
5945.1 2.8749
5952 2.8477
5958.8 2.8266
5965.7 2.7987
5972.5 2.7570
5979.4 2.7049
5986.3 2.6481
5993.2 2.5912
6000.2 2.5361
6007.1 2.4816
6014.1 2.4248
6021.1 2.3587
6028.1 2.2803
6035.1 2.1953
6042.1 2.1124
6049.2 2.0395
6056.3 1.9821
6063.3 1.9428
6070.4 1.9173
6077.6 1.8948
6084.7 1.8652
6091.8 1.8254
6099 1.7780
6106.2 1.7285
6113.4 1.6857
6120.6 1.6570
6127.8 1.6466
6135.1 1.6527
6142.4 1.6712
6149.6 1.7006
6157 1.7406
6164.3 1.7941
6171.6 1.8652
6179 1.9582
6186.3 2.0738
6193.7 2.2085
6201.1 2.3542
6208.6 2.5024
6216 2.6448
6223.5 2.7769
6231 2.8970
6238.5 3.0061
6246 3.1063
6253.5 3.1980
6261.1 3.2794
6268.6 3.3514
6276.2 3.4161
6283.8 3.4769
6291.4 3.5371
6299.1 3.5989
6306.8 3.6626
6314.4 3.7235
6322.1 3.7772
6329.9 3.8253
6337.6 3.8748
6345.4 3.9319
6353.1 4.0017
6360.9 4.0832
6368.7 4.1680
6376.6 4.2409
6384.4 4.2878
6392.3 4.3091
6400.2 4.3193
6408.1 4.3368
6416 4.3806
6424 4.4562
6432 4.5511
6439.9 4.6380
6448 4.6854
6456 4.6750
6464 4.6084
6472.1 4.5045
6480.2 4.3944
6488.3 4.3079
6496.4 4.2606
6504.6 4.2525
6512.8 4.2691
6520.9 4.2887
6529.2 4.2909
6537.4 4.2643
6545.6 4.2115
6553.9 4.1436
6562.2 4.0768
6570.5 4.0244
6578.9 3.9911
6587.2 3.9697
6595.6 3.9484
6604 3.9153
6612.4 3.8634
6620.9 3.7992
6629.4 3.7353
6637.8 3.6813
6646.4 3.6396
6654.9 3.6048
6663.4 3.5683
6672 3.5212
6680.6 3.4589
6689.2 3.3879
6697.9 3.3185
6706.5 3.2591
6715.2 3.2119
6723.9 3.1738
6732.7 3.1385
6741.4 3.0987
6750.2 3.0490
6759 2.9896
6767.8 2.9268
6776.7 2.8695
6785.5 2.8245
6794.4 2.7928
6803.4 2.7712
6812.3 2.7549
6821.3 2.7362
6830.2 2.7111
6839.3 2.6803
6848.3 2.6516
6857.3 2.6315
6866.4 2.6237
6875.5 2.6291
6884.7 2.6450
6893.8 2.6647
6903 2.6808
6912.2 2.6879
6921.4 2.6853
6930.7 2.6746
6940 2.6592
6949.3 2.6452
6958.6 2.6384
6967.9 2.6422
6977.3 2.6559
6986.7 2.6755
6996.2 2.6961
7005.6 2.7123
7015.1 2.7217
7024.6 2.7272
7034.1 2.7338
7043.7 2.7471
7053.3 2.7677
7062.9 2.7921
7072.5 2.8127
7082.2 2.8202
7091.9 2.8072
7101.6 2.7719
7111.3 2.7194
7121.1 2.6575
7130.9 2.5953
7140.7 2.5401
7150.6 2.4967
7160.4 2.4676
7170.3 2.4513
7180.3 2.4480
7190.2 2.4584
7200.2 2.4816
7210.2 2.5155
7220.3 2.5560
7230.3 2.5981
7240.4 2.6377
7250.6 2.6722
7260.7 2.7042
7270.9 2.7388
7281.1 2.7819
7291.4 2.8380
7301.6 2.9088
7311.9 2.9934
7322.3 3.0893
7332.6 3.1944
7343 3.3059
7353.4 3.4218
7363.9 3.5385
7374.3 3.6524
7384.8 3.7590
7395.4 3.8551
7405.9 3.9394
7416.5 4.0119
7427.2 4.0747
7437.8 4.1317
7448.5 4.1867
7459.2 4.2418
7470 4.2980
7480.7 4.3539
7491.6 4.4067
7502.4 4.4528
7513.3 4.4903
7524.2 4.5196
7535.1 4.5431
7546.1 4.5630
7557.1 4.5805
7568.1 4.5973
7579.2 4.6127
7590.3 4.6269
7601.4 4.6399
7612.6 4.6541
7623.8 4.6712
7635 4.6923
7646.2 4.7169
7657.5 4.7432
7668.9 4.7678
7680.2 4.7875
7691.6 4.7995
7703.1 4.8024
7714.5 4.7960
7726 4.7813
7737.5 4.7600
7749.1 4.7337
7760.7 4.7051
7772.3 4.6759
7784 4.6475
7795.7 4.6189
7807.5 4.5893
7819.2 4.5575
7831 4.5222
7842.9 4.4848
7854.8 4.4476
7866.7 4.4133
7878.6 4.3832
7890.6 4.3576
7902.7 4.3361
7914.7 4.3169
7926.8 4.2975
7939 4.2774
7951.2 4.2563
7963.4 4.2336
7975.6 4.2087
7987.9 4.1807
8000.2 4.1492
8012.6 4.1133
8025 4.0706
8037.4 4.0218
8049.9 3.9678
8062.4 3.9096
8075 3.8492
8087.6 3.7895
8100.2 3.7332
8112.9 3.6811
8125.6 3.6328
8138.4 3.5868
8151.2 3.5423
8164 3.4961
8176.9 3.4485
8189.8 3.4014
8202.8 3.3573
8215.8 3.3190
8228.8 3.2880
8241.9 3.2643
8255 3.2453
8268.2 3.2266
8281.4 3.2044
8294.6 3.1759
8307.9 3.1402
8321.3 3.0966
8334.7 3.0473
8348.1 2.9950
8361.5 2.9417
8375 2.8892
8388.6 2.8380
8402.2 2.7890
8415.8 2.7430
8429.5 2.7011
8443.2 2.6639
8457 2.6327
8470.8 2.6083
8484.7 2.5891
8498.6 2.5742
8512.6 2.5616
8526.6 2.5498
8540.6 2.5346
8554.7 2.5133
8568.8 2.4847
8583 2.4503
8597.3 2.4136
8611.6 2.3809
8625.9 2.3580
8640.3 2.3483
8654.7 2.3511
8669.2 2.3634
8683.7 2.3805
8698.2 2.3978
8712.9 2.4110
8727.5 2.4193
8742.2 2.4224
8757 2.4214
8771.8 2.4198
8786.7 2.4203
8801.6 2.4245
8816.6 2.4323
8831.6 2.4425
8846.7 2.4520
8861.8 2.4579
8877 2.4600
8892.2 2.4598
8907.5 2.4596
8922.8 2.4603
8938.2 2.4617
8953.6 2.4622
8969.1 2.4603
8984.7 2.4558
9000.3 2.4503
9015.9 2.4461
9031.6 2.4446
9047.4 2.4461
9063.2 2.4491
9079.1 2.4525
9095 2.4570
9111 2.4638
9127 2.4750
9143.1 2.4918
9159.3 2.5147
9175.5 2.5443
9191.8 2.5785
9208.1 2.6149
9224.5 2.6519
9240.9 2.6876
9257.4 2.7205
9274 2.7499
9290.6 2.7769
9307.3 2.8027
9324 2.8273
9340.8 2.8496
9357.7 2.8688
9374.6 2.8832
9391.6 2.8918
9408.6 2.8944
9425.7 2.8944
9442.9 2.8948
9460.1 2.8977
9477.4 2.9022
9494.8 2.9074
9512.2 2.9105
9529.7 2.9093
9547.2 2.9034
9564.9 2.8958
9582.5 2.8906
9600.3 2.8889
9618.1 2.8899
9636 2.8903
9653.9 2.8858
9671.9 2.8728
9690 2.8510
9708.2 2.8233
9726.4 2.7930
9744.7 2.7625
9763 2.7331
9781.4 2.7061
9799.9 2.6822
9818.5 2.6628
9837.1 2.6485
9855.8 2.6405
9874.6 2.6358
9893.4 2.6301
9912.3 2.6211
9931.3 2.6081
9950.4 2.5908
9969.5 2.5704
9988.7 2.5479
10008 2.5235
10027.4 2.4965
10046.8 2.4671
10066.3 2.4380
10085.9 2.4110
10105.6 2.3876
10125.3 2.3677
10145.1 2.3511
10165 2.3360
10185 2.3213
10205 2.3073
10225.1 2.2945
10245.4 2.2831
10265.6 2.2730
10286 2.2623
10306.5 2.2509
10327 2.2386
10347.6 2.2263
10368.3 2.2171
10389.1 2.2121
10409.9 2.2119
10430.9 2.2140
10451.9 2.2149
10473 2.2114
10494.2 2.2019
10515.5 2.1879
10536.9 2.1742
10558.4 2.1650
10579.9 2.1631
10601.5 2.1685
10623.3 2.1787
10645.1 2.1884
10667 2.1936
10689 2.1934
10711.1 2.1891
10733.2 2.1830
10755.5 2.1775
10777.9 2.1749
10800.3 2.1740
10822.9 2.1718
10845.5 2.1673
10868.2 2.1619
10891.1 2.1569
10914 2.1546
10937 2.1581
10960.2 2.1688
10983.4 2.1853
11006.7 2.2055
11030.1 2.2275
11053.6 2.2502
11077.3 2.2715
11101 2.2898
11124.8 2.3040
11148.7 2.3139
11172.7 2.3210
11196.9 2.3274
11221.1 2.3352
11245.5 2.3450
11269.9 2.3547
11294.4 2.3596
11319.1 2.3549
11343.9 2.3369
11368.8 2.3080
11393.7 2.2744
11418.8 2.2450
11444 2.2303
11469.4 2.2363
11494.8 2.2623
11520.3 2.3009
11546 2.3407
11571.8 2.3719
11597.7 2.3878
11623.7 2.3878
11649.8 2.3753
11676 2.3547
11702.4 2.3291
11728.9 2.3002
11755.5 2.2699
11782.2 2.2403
11809 2.2156
11836 2.2000
11863.1 2.1958
11890.3 2.2010
11917.6 2.2126
11945 2.2251
11972.6 2.2339
12000.3 2.2370
12028.2 2.2346
12056.2 2.2268
12084.3 2.2147
12112.5 2.1981
12140.9 2.1778
12169.4 2.1543
12198 2.1292
12226.8 2.1048
12255.7 2.0833
12284.7 2.0650
12313.9 2.0499
12343.2 2.0352
12372.7 2.0184
12402.3 1.9971
12432 1.9689
12461.9 1.9331
12491.9 1.8898
12522.1 1.8408
12552.4 1.7903
12582.9 1.7420
12613.5 1.7013
12644.3 1.6710
12675.2 1.6523
12706.3 1.6430
12737.5 1.6385
12768.8 1.6338
12800.4 1.6262
12832.1 1.6144
12863.9 1.6004
12895.9 1.5874
12928.1 1.5779
12960.4 1.5727
12992.9 1.5706
13025.5 1.5682
13058.3 1.5620
13091.3 1.5502
13124.4 1.5339
13157.7 1.5161
13191.2 1.5012
13224.9 1.4931
13258.7 1.4936
13292.7 1.5000
13326.9 1.5083
13361.2 1.5133
13395.7 1.5109
13430.4 1.4993
13465.3 1.4780
13500.4 1.4481
13535.6 1.4128
13571.1 1.3780
13606.7 1.3510
13642.5 1.3378
13678.5 1.3392
13714.7 1.3501
13751.1 1.3584
13787.6 1.3487
13824.4 1.3127
13861.4 1.2520
13898.5 1.1801
13935.9 1.1175
13973.4 1.0820
14011.2 1.0806
14049.2 1.1064
14087.4 1.1400
14125.8 1.1595
14164.3 1.1438
14203.2 1.0896
14242.2 1.0155
14281.4 0.9466
14320.9 0.9127
14360.5 0.9276
14400.4 0.9825
14440.5 1.0413
14480.9 1.0491
14521.4 0.9686
14562.2 0.8014
14603.3 0.5743
14644.5 0.3510
14686 0.2013
14727.7 0.1755
14769.7 0.2667
14811.9 0.4151
14854.3 0.5537
14897 0.6190
14939.9 0.5534
14983.1 0.3706
