# Soil optical properties : Brown silty loam
# Colums : Wavelength(nm) Reflectance(%) Transmitance(%)
#
300 1.0093
400 1.0093
401 1.0990
402 1.3230
403 1.4113
404 1.5443
405 1.4117
406 1.5448
407 1.8945
408 1.9809
409 2.0246
410 2.0257
411 2.1129
412 2.1978
413 2.4605
414 2.6375
415 2.7246
416 2.7207
417 2.8088
418 3.0019
419 3.1784
420 3.1930
421 3.1839
422 3.3692
423 3.3528
424 3.6071
425 3.6876
426 3.8147
427 3.9171
428 3.9196
429 4.3513
430 4.3513
431 4.3572
432 4.5079
433 4.7906
434 4.7771
435 4.7738
436 5.2413
437 5.2335
438 5.1098
439 5.3158
440 5.4635
441 5.5249
442 5.7610
443 5.7349
444 5.7349
445 5.7784
446 6.0528
447 6.1142
448 6.3031
449 6.1522
450 6.4537
451 6.6241
452 6.6619
453 7.0344
454 7.1020
455 7.2084
456 7.3559
457 7.5161
458 7.2135
459 7.3019
460 7.5743
461 7.7176
462 7.8628
463 7.8564
464 7.7586
465 7.9217
466 7.9086
467 8.0519
468 8.1231
469 8.2600
470 8.1502
471 8.2874
472 8.2532
473 8.2463
474 8.6967
475 8.8662
476 8.9964
477 8.6503
478 8.9513
479 9.0735
480 9.1651
481 9.2184
482 9.2871
483 9.2948
484 9.3553
485 9.6142
486 9.7275
487 9.8356
488 9.8568
489 9.9486
490 9.9905
491 9.8960
492 9.9701
493 10.0984
494 10.4488
495 10.5867
496 10.4231
497 10.4890
498 10.6352
499 10.7377
500 10.8842
501 10.9762
502 11.2801
503 11.1975
504 11.4088
505 11.4999
506 11.3902
507 11.6565
508 11.6742
509 11.6459
510 11.9116
511 12.2198
512 12.1172
513 12.2656
514 12.3091
515 12.4577
516 12.6646
517 12.6646
518 12.6545
519 12.8905
520 13.0912
521 13.2408
522 13.4348
523 13.5780
524 13.1885
525 13.3819
526 13.6412
527 13.8453
528 13.9736
529 14.0436
530 14.1607
531 14.2777
532 14.5580
533 14.6859
534 14.5922
535 14.6265
536 15.0116
537 15.1883
538 15.3167
539 15.4210
540 15.3250
541 15.5803
542 15.4293
543 15.7696
544 16.1282
545 16.0909
546 16.1282
547 16.0660
548 16.2363
549 16.4746
550 16.5509
551 16.4799
552 16.7955
553 16.9644
554 16.7637
555 17.0073
556 16.9820
557 16.8513
558 17.2025
559 18.0406
560 18.5185
561 18.4782
562 18.7791
563 18.7503
564 18.8103
565 19.1389
566 18.8991
567 19.0536
568 19.0418
569 19.1678
570 19.5447
571 19.6293
572 19.8029
573 20.0140
574 20.0824
575 20.1909
576 20.3231
577 20.2668
578 20.4331
579 20.6936
580 20.6264
581 20.4174
582 20.5631
583 20.6510
584 20.6798
585 21.0811
586 20.7198
587 21.0165
588 20.9970
589 21.2069
590 21.3729
591 21.3630
592 21.7449
593 21.5908
594 21.7895
595 21.6403
596 21.7563
597 21.8882
598 22.1055
599 21.9919
600 22.2359
601 22.1995
602 22.2132
603 22.2930
604 22.3684
605 22.5139
606 22.5431
607 22.3815
608 22.4934
609 22.7528
610 22.7167
611 22.9900
612 23.4916
613 23.2806
614 23.4147
615 23.3319
616 23.3491
617 23.2374
618 23.3662
619 23.6652
620 23.6827
621 23.5643
622 23.6660
623 23.7770
624 23.8467
625 23.8769
626 23.9352
627 24.0513
628 24.1394
629 24.3394
630 24.7539
631 25.0681
632 24.8562
633 24.9671
634 25.0036
635 25.0036
636 24.8763
637 24.7500
638 24.7960
639 24.6248
640 24.9159
641 24.9520
642 25.4274
643 25.5197
644 25.5383
645 25.4094
646 25.7192
647 25.7750
648 25.5557
649 25.3546
650 25.5003
651 26.0157
652 26.2011
653 26.1632
654 26.1065
655 26.4065
656 26.6842
657 26.5493
658 26.5493
659 26.5124
660 26.3230
661 26.0482
662 26.3728
663 26.0852
664 26.2127
665 26.6719
666 26.7890
667 26.8985
668 27.0782
669 26.8599
670 26.8407
671 27.0782
672 26.7230
673 26.8505
674 26.9781
675 27.2376
676 27.2959
677 27.7494
678 27.5661
679 27.4967
680 27.6640
681 27.7923
682 27.6354
683 27.6848
684 27.6458
685 27.6653
686 27.7434
687 27.7826
688 27.8906
689 28.0054
690 28.2736
691 28.2537
692 28.1459
693 28.0470
694 28.1743
695 28.2537
696 28.3795
697 29.0494
698 28.9089
699 28.6887
700 29.0845
701 29.1897
702 29.0444
703 29.0243
704 28.9644
705 28.9644
706 28.9444
707 29.0692
708 28.9695
709 29.2141
710 29.6499
711 29.2785
712 29.4470
713 29.4099
714 29.4940
715 29.7567
716 29.6932
717 29.7198
718 29.8445
719 30.0940
720 29.7792
721 29.7996
722 30.0118
723 30.1098
724 30.2760
725 30.1524
726 30.1730
727 30.3174
728 30.3792
729 30.3380
730 30.6890
731 30.4736
732 30.6890
733 30.6185
734 30.7844
735 30.6802
736 30.7362
737 30.6802
738 30.8668
739 30.7897
740 30.8391
741 30.8446
742 30.8238
743 31.1315
744 31.0896
745 31.2076
746 31.1735
747 31.4967
748 31.5393
749 31.4499
750 31.5865
751 31.3604
752 31.3181
753 31.7574
754 31.7147
755 31.7104
756 31.7317
757 31.7104
758 31.5874
759 31.8003
760 31.8171
761 31.8171
762 31.8596
763 32.3795
764 32.1597
765 32.0841
766 31.8383
767 32.3473
768 32.2762
769 32.2808
770 32.2226
771 32.3666
772 32.4097
773 32.4097
774 32.4097
775 32.4312
776 32.6409
777 32.5612
778 32.8434
779 33.0234
780 32.7026
781 32.8471
782 32.8253
783 32.7819
784 33.1242
785 32.7169
786 32.8293
787 32.9481
788 32.8471
789 32.7500
790 33.0173
791 33.1315
792 32.9955
793 33.2758
794 33.2101
795 33.4218
796 33.1882
797 33.2211
798 33.4300
799 33.4284
800 33.3055
804 33.4023
808 33.2509
812 33.2299
816 33.4376
820 33.4115
824 33.5562
828 33.6204
832 33.5014
836 33.5014
840 33.6154
844 33.6154
848 33.4546
852 33.4002
856 33.3334
860 33.2644
864 33.3927
868 33.5425
872 33.3704
876 33.4147
880 33.3734
884 33.4563
888 33.0447
892 33.1720
896 33.2918
900 33.5038
904 33.4014
908 33.4391
912 33.3351
916 33.2745
920 33.4415
924 33.5323
928 33.3450
932 33.6919
936 33.5934
940 33.7365
944 33.7571
948 33.9386
952 33.7232
956 33.9001
960 33.7476
964 33.7476
968 34.1128
972 33.9199
976 33.9199
980 34.1200
984 34.0745
988 34.4431
992 33.9685
996 34.2539
1000 34.3073
1004 34.1842
1008 34.4973
1012 34.6567
1016 34.8791
1020 34.9971
1024 34.9895
1028 34.9270
1032 34.7408
1036 34.3633
1040 34.5765
1044 34.9474
1048 35.2146
1052 35.5884
1056 35.4567
1060 35.4200
1064 35.4737
1068 35.5526
1072 35.4528
1076 35.3067
1080 35.1287
1084 35.4805
1088 35.8696
1092 35.8230
1096 35.7808
1100 35.9647
1104 35.9600
1108 36.0368
1112 36.3104
1116 36.4232
1120 36.4817
1124 36.4500
1128 36.2493
1132 36.5011
1136 36.1432
1140 35.8225
1144 36.4604
1148 36.9215
1152 36.9339
1156 37.1532
1160 37.2721
1164 37.1715
1168 37.3544
1172 37.4887
1176 37.5103
1180 37.5682
1184 37.6116
1188 37.7412
1192 37.8274
1196 37.5588
1200 37.7100
1204 37.7539
1208 37.7476
1212 37.1352
1216 37.1082
1220 37.6741
1224 37.7626
1228 37.9692
1232 38.1284
1236 37.9692
1240 37.5819
1244 37.7404
1248 37.8268
1252 37.7649
1256 37.8550
1260 37.9687
1264 38.1092
1268 38.4236
1272 38.8068
1276 38.7422
1280 38.7883
1284 38.9732
1288 39.0317
1292 39.0804
1296 39.1292
1300 39.0621
1304 39.1511
1308 39.1906
1312 39.1235
1316 38.9678
1320 38.9234
1324 39.0288
1328 39.1395
1332 39.2772
1336 39.0776
1340 38.9005
1344 39.0650
1348 38.9230
1352 39.0703
1356 39.0516
1360 38.8708
1364 38.8969
1368 38.8238
1372 38.6422
1376 38.5251
1380 38.3962
1384 38.0721
1388 38.0156
1392 38.1209
1396 37.8985
1400 37.9406
1404 37.2979
1408 37.5033
1412 37.5586
1416 37.8943
1420 38.0431
1424 38.3943
1428 38.3271
1432 38.3931
1436 38.4815
1440 38.6198
1444 38.7307
1448 38.6422
1452 38.8783
1456 39.1632
1460 39.0848
1464 38.9532
1468 39.0626
1472 39.0302
1476 39.1344
1480 39.4581
1484 39.4852
1488 39.4204
1492 39.2747
1496 39.4407
1500 39.5480
1504 39.6534
1508 39.7765
1512 39.7765
1516 39.9761
1520 40.0125
1524 40.1167
1528 40.1349
1532 40.1349
1536 40.1799
1540 40.1167
1544 39.8555
1548 39.9150
1552 40.1389
1556 40.1210
1560 40.4049
1564 40.7264
1568 41.1070
1572 41.0838
1576 40.5539
1580 40.3961
1584 40.4049
1588 40.3822
1592 40.6608
1596 40.3822
1600 40.2516
1604 40.2654
1608 39.9781
1612 39.9519
1616 40.2192
1620 40.8474
1624 40.7088
1628 40.8619
1632 40.7770
1636 40.8453
1640 40.7500
1644 40.6578
1648 40.6655
1652 40.6715
1656 40.8865
1660 40.8391
1664 40.9321
1668 40.8018
1672 40.7590
1676 40.8739
1680 40.8054
1684 40.9575
1688 40.9121
1692 41.1100
1696 40.9055
1700 41.0798
1704 40.8763
1708 41.1482
1712 40.9893
1716 41.1557
1720 41.2630
1724 41.1861
1728 41.2861
1732 41.2015
1736 41.0189
1740 41.1100
1744 40.7981
1748 40.9348
1752 41.0791
1756 41.0019
1760 41.1708
1764 41.1862
1768 41.4992
1772 41.3620
1776 41.7004
1780 41.5743
1784 41.4908
1788 41.3613
1792 40.9664
1796 40.9508
1800 41.0798
1804 41.1026
1808 41.2241
1812 41.0117
1816 40.9508
1820 41.0660
1824 40.8377
1828 41.0146
1832 40.8556
1836 40.9384
1840 40.9436
1844 40.6732
1848 40.8739
1852 40.8377
1856 41.1786
1860 40.6334
1864 40.4096
1868 40.0084
1872 39.6531
1876 39.2060
1880 38.8837
1884 38.4397
1888 37.6585
1892 37.0372
1896 36.1776
1900 35.4649
1904 35.2187
1908 35.2015
1912 35.4780
1916 35.8139
1920 35.8402
1924 36.0335
1928 36.2965
1932 36.8210
1936 37.1304
1940 37.2795
1944 37.4749
1948 37.7820
1952 37.8251
1956 37.7630
1960 37.7640
1964 37.7234
1968 38.0388
1972 38.0967
1976 38.1650
1980 38.2697
1984 38.5424
1988 39.0382
1992 39.2360
1996 39.3351
2000 39.3351
2004 39.2876
2008 39.3920
2012 39.5577
2016 39.6155
2020 39.6159
2024 39.4203
2028 39.4992
2032 39.4992
2036 39.7476
2040 39.8720
2044 39.9922
2048 40.0321
2052 39.9893
2056 39.8214
2060 39.8002
2064 39.9879
2068 40.3699
2072 39.9793
2076 40.1028
2079.5 40.0580
2080.3 40.2611
2081.2 40.0155
2082 39.8374
2082.8 39.9303
2083.7 39.8922
2084.5 39.9274
2085.3 39.9616
2086.2 39.9708
2087 39.9972
2087.9 40.0148
2088.7 40.0297
2089.5 40.0436
2090.4 40.0517
2091.2 40.0556
2092.1 40.0570
2092.9 40.0577
2093.8 40.0543
2094.6 40.0429
2095.5 40.0231
2096.3 39.9967
2097.1 39.9691
2098 39.9462
2098.8 39.9354
2099.7 39.9415
2100.5 39.9613
2101.4 39.9872
2102.3 40.0097
2103.1 40.0219
2104 40.0225
2104.8 40.0163
2105.7 40.0084
2106.5 40.0089
2107.4 40.0206
2108.2 40.0343
2109.1 40.0382
2110 40.0258
2110.8 39.9953
2111.7 39.9464
2112.5 39.8864
2113.4 39.8322
2114.3 39.7968
2115.1 39.7833
2116 39.7943
2116.8 39.8270
2117.7 39.8681
2118.6 39.8964
2119.4 39.9020
2120.3 39.8873
2121.2 39.8605
2122 39.8329
2122.9 39.8183
2123.8 39.8224
2124.7 39.8415
2125.5 39.8703
2126.4 39.9093
2127.3 39.9599
2128.1 40.0174
2129 40.0751
2129.9 40.1217
2130.8 40.1420
2131.6 40.1261
2132.5 40.0761
2133.4 40.0048
2134.3 39.9284
2135.2 39.8624
2136 39.8226
2136.9 39.8168
2137.8 39.8429
2138.7 39.8908
2139.6 39.9508
2140.4 40.0104
2141.3 40.0531
2142.2 40.0668
2143.1 40.0458
2144 39.9909
2144.9 39.9125
2145.8 39.8285
2146.6 39.7609
2147.5 39.7245
2148.4 39.7211
2149.3 39.7414
2150.2 39.7670
2151.1 39.7851
2152 39.7904
2152.9 39.7841
2153.8 39.7699
2154.7 39.7509
2155.6 39.7289
2156.5 39.7020
2157.4 39.6671
2158.3 39.6275
2159.2 39.5874
2160.1 39.5497
2161 39.5170
2161.9 39.4889
2162.8 39.4686
2163.7 39.4535
2164.6 39.4374
2165.5 39.4201
2166.4 39.4020
2167.3 39.3832
2168.2 39.3659
2169.1 39.3520
2170 39.3468
2170.9 39.3485
2171.8 39.3532
2172.7 39.3600
2173.6 39.3649
2174.6 39.3603
2175.5 39.3429
2176.4 39.3141
2177.3 39.2785
2178.2 39.2423
2179.1 39.2118
2180 39.1901
2181 39.1759
2181.9 39.1630
2182.8 39.1457
2183.7 39.1186
2184.6 39.0783
2185.6 39.0265
2186.5 38.9674
2187.4 38.9088
2188.3 38.8610
2189.3 38.8283
2190.2 38.8100
2191.1 38.7997
2192 38.7874
2193 38.7653
2193.9 38.7287
2194.8 38.6789
2195.7 38.6217
2196.7 38.5624
2197.6 38.5048
2198.5 38.4496
2199.5 38.3952
2200.4 38.3395
2201.3 38.2833
2202.3 38.2282
2203.2 38.1808
2204.1 38.1474
2205.1 38.1310
2206 38.1330
2207 38.1496
2207.9 38.1742
2208.8 38.1994
2209.8 38.2211
2210.7 38.2401
2211.7 38.2565
2212.6 38.2721
2213.6 38.2909
2214.5 38.3166
2215.5 38.3502
2216.4 38.3944
2217.3 38.4499
2218.3 38.5150
2219.2 38.5802
2220.2 38.6322
2221.1 38.6626
2222.1 38.6701
2223.1 38.6581
2224 38.6374
2225 38.6217
2225.9 38.6251
2226.9 38.6498
2227.8 38.6879
2228.8 38.7325
2229.7 38.7753
2230.7 38.8043
2231.7 38.8122
2232.6 38.7977
2233.6 38.7694
2234.5 38.7367
2235.5 38.7091
2236.5 38.6962
2237.4 38.6994
2238.4 38.7116
2239.4 38.7218
2240.3 38.7194
2241.3 38.7027
2242.3 38.6786
2243.3 38.6598
2244.2 38.6564
2245.2 38.6737
2246.2 38.7076
2247.1 38.7470
2248.1 38.7790
2249.1 38.7936
2250.1 38.7895
2251 38.7753
2252 38.7616
2253 38.7560
2254 38.7621
2255 38.7794
2255.9 38.8048
2256.9 38.8285
2257.9 38.8449
2258.9 38.8559
2259.9 38.8646
2260.9 38.8729
2261.8 38.8826
2262.8 38.8981
2263.8 38.9203
2264.8 38.9425
2265.8 38.9576
2266.8 38.9627
2267.8 38.9552
2268.8 38.9323
2269.8 38.8971
2270.8 38.8593
2271.8 38.8295
2272.8 38.8119
2273.8 38.8051
2274.7 38.8073
2275.7 38.8124
2276.7 38.8095
2277.7 38.7921
2278.7 38.7636
2279.8 38.7318
2280.8 38.7035
2281.8 38.6837
2282.8 38.6759
2283.8 38.6764
2284.8 38.6747
2285.8 38.6652
2286.8 38.6491
2287.8 38.6298
2288.8 38.6117
2289.8 38.5980
2290.8 38.5897
2291.8 38.5826
2292.9 38.5714
2293.9 38.5574
2294.9 38.5441
2295.9 38.5351
2296.9 38.5324
2297.9 38.5365
2299 38.5431
2300 38.5424
2301 38.5287
2302 38.5053
2303 38.4770
2304.1 38.4535
2305.1 38.4452
2306.1 38.4562
2307.1 38.4796
2308.2 38.5023
2309.2 38.5158
2310.2 38.5167
2311.3 38.5060
2312.3 38.4916
2313.3 38.4818
2314.4 38.4776
2315.4 38.4748
2316.4 38.4701
2317.5 38.4640
2318.5 38.4572
2319.5 38.4516
2320.6 38.4511
2321.6 38.4550
2322.6 38.4574
2323.7 38.4547
2324.7 38.4455
2325.8 38.4284
2326.8 38.4003
2327.9 38.3622
2328.9 38.3177
2330 38.2721
2331 38.2325
2332.1 38.2038
2333.1 38.1886
2334.2 38.1823
2335.2 38.1737
2336.3 38.1559
2337.3 38.1259
2338.4 38.0858
2339.4 38.0412
2340.5 37.9972
2341.5 37.9606
2342.6 37.9354
2343.6 37.9235
2344.7 37.9262
2345.8 37.9413
2346.8 37.9599
2347.9 37.9704
2349 37.9630
2350 37.9375
2351.1 37.9035
2352.2 37.8739
2353.2 37.8607
2354.3 37.8686
2355.4 37.8937
2356.4 37.9247
2357.5 37.9527
2358.6 37.9770
2359.7 37.9989
2360.7 38.0180
2361.8 38.0309
2362.9 38.0360
2364 38.0312
2365 38.0141
2366.1 37.9911
2367.2 37.9721
2368.3 37.9611
2369.4 37.9547
2370.4 37.9486
2371.5 37.9423
2372.6 37.9320
2373.7 37.9145
2374.8 37.8915
2375.9 37.8651
2377 37.8341
2378.1 37.7965
2379.1 37.7558
2380.2 37.7194
2381.3 37.6925
2382.4 37.6750
2383.5 37.6649
2384.6 37.6596
2385.7 37.6549
2386.8 37.6488
2387.9 37.6437
2389 37.6457
2390.1 37.6571
2391.2 37.6740
2392.3 37.6875
2393.4 37.6916
2394.5 37.6833
2395.6 37.6657
2396.7 37.6471
2397.9 37.6383
2399 37.6464
2400.1 37.6691
2401.2 37.6957
2402.3 37.7133
2403.4 37.7127
2404.5 37.6911
2405.6 37.6510
2406.8 37.6017
2407.9 37.5548
2409 37.5182
2410.1 37.4921
2411.2 37.4733
2412.4 37.4582
2413.5 37.4459
2414.6 37.4355
2415.7 37.4262
2416.9 37.4167
2418 37.4042
2419.1 37.3844
2420.2 37.3551
2421.4 37.3188
2422.5 37.2814
2423.6 37.2475
2424.8 37.2187
2425.9 37.1927
2427 37.1664
2428.2 37.1361
2429.3 37.1010
2430.5 37.0619
2431.6 37.0219
2432.7 36.9845
2433.9 36.9533
2435 36.9311
2436.2 36.9196
2437.3 36.9181
2438.5 36.9218
2439.6 36.9215
2440.8 36.9103
2441.9 36.8842
2443.1 36.8451
2444.2 36.8000
2445.4 36.7563
2446.5 36.7199
2447.7 36.6918
2448.8 36.6693
2450 36.6469
2451.1 36.6225
2452.3 36.5977
2453.5 36.5749
2454.6 36.5536
2455.8 36.5338
2456.9 36.5148
2458.1 36.4914
2459.3 36.4608
2460.4 36.4240
2461.6 36.3859
2462.8 36.3505
2464 36.3212
2465.1 36.3012
2466.3 36.2902
2467.5 36.2838
2468.6 36.2770
2469.8 36.2660
2471 36.2482
2472.2 36.2248
2473.4 36.1984
2474.5 36.1723
2475.7 36.1483
2476.9 36.1249
2478.1 36.0995
2479.3 36.0700
2480.5 36.0368
2481.6 36.0048
2482.8 35.9779
2484 35.9584
2485.2 35.9491
2486.4 35.9474
2487.6 35.9486
2488.8 35.9501
2490 35.9496
2491.2 35.9433
2492.4 35.9257
2493.6 35.8952
2494.8 35.8539
2496 35.8051
2497.2 35.7555
2498.4 35.7160
2499.6 35.6930
2500.8 35.6859
2502 35.6903
2503.2 35.7018
2504.4 35.7145
2505.6 35.7221
2506.8 35.7221
2508.1 35.7150
2509.3 35.7001
2510.5 35.6784
2511.7 35.6535
2512.9 35.6324
2514.1 35.6212
2515.4 35.6226
2516.6 35.6364
2517.8 35.6554
2519 35.6708
2520.2 35.6754
2521.5 35.6667
2522.7 35.6461
2523.9 35.6217
2525.2 35.6017
2526.4 35.5907
2527.6 35.5888
2528.9 35.5924
2530.1 35.5968
2531.3 35.5951
2532.6 35.5858
2533.8 35.5724
2535 35.5573
2536.3 35.5429
2537.5 35.5304
2538.8 35.5204
2540 35.5107
2541.3 35.4984
2542.5 35.4855
2543.7 35.4748
2545 35.4662
2546.2 35.4601
2547.5 35.4565
2548.7 35.4525
2550 35.4450
2551.3 35.4323
2552.5 35.4154
2553.8 35.3964
2555 35.3771
2556.3 35.3586
2557.5 35.3398
2558.8 35.3197
2560.1 35.2973
2561.3 35.2736
2562.6 35.2511
2563.9 35.2323
2565.1 35.2191
2566.4 35.2111
2567.7 35.2050
2569 35.1979
2570.2 35.1874
2571.5 35.1737
2572.8 35.1579
2574.1 35.1415
2575.3 35.1269
2576.6 35.1132
2577.9 35.0975
2579.2 35.0785
2580.5 35.0556
2581.7 35.0314
2583 35.0104
2584.3 34.9967
2585.6 34.9916
2586.9 34.9909
2588.2 34.9867
2589.5 34.9743
2590.8 34.9503
2592.1 34.9175
2593.4 34.8842
2594.7 34.8583
2596 34.8429
2597.3 34.8329
2598.6 34.8205
2599.9 34.7968
2601.2 34.7558
2602.5 34.7006
2603.8 34.6424
2605.1 34.5932
2606.4 34.5563
2607.7 34.5321
2609 34.5158
2610.3 34.4976
2611.7 34.4687
2613 34.4284
2614.3 34.3825
2615.6 34.3351
2616.9 34.2892
2618.3 34.2499
2619.6 34.2179
2620.9 34.1891
2622.2 34.1559
2623.6 34.1149
2624.9 34.0641
2626.2 34.0024
2627.5 33.9335
2628.9 33.8642
2630.2 33.7992
2631.5 33.7387
2632.9 33.6796
2634.2 33.6191
2635.6 33.5529
2636.9 33.4794
2638.2 33.4023
2639.6 33.3263
2640.9 33.2531
2642.3 33.1811
2643.6 33.1066
2645 33.0253
2646.3 32.9301
2647.7 32.8193
2649 32.6950
2650.4 32.5595
2651.7 32.4154
2653.1 32.2665
2654.5 32.1154
2655.8 31.9633
2657.2 31.8102
2658.5 31.6542
2659.9 31.4889
2661.3 31.3046
2662.6 31.0939
2664 30.8551
2665.4 30.5861
2666.7 30.2922
2668.1 29.9809
2669.5 29.6579
2670.9 29.3229
2672.2 28.9728
2673.6 28.6061
2675 28.2206
2676.4 27.8100
2677.8 27.3661
2679.1 26.8771
2680.5 26.3256
2681.9 25.6911
2683.3 24.9531
2684.7 24.0952
2686.1 23.1100
2687.5 22.0007
2688.9 20.7817
2690.3 19.4829
2691.7 18.1464
2693.1 16.8198
2694.5 15.5454
2695.9 14.3588
2697.3 13.2907
2698.7 12.3630
2700.1 11.5893
2701.5 10.9814
2702.9 10.5442
2704.3 10.2675
2705.7 10.1233
2707.1 10.0727
2708.5 10.0732
2710 10.0796
2711.4 10.0520
2712.8 9.9656
2714.2 9.8103
2715.6 9.5866
2717.1 9.3056
2718.5 8.9880
2719.9 8.6579
2721.3 8.3332
2722.8 8.0217
2724.2 7.7258
2725.6 7.4436
2727.1 7.1716
2728.5 6.9082
2729.9 6.6555
2731.4 6.4192
2732.8 6.2021
2734.3 6.0034
2735.7 5.8220
2737.1 5.6576
2738.6 5.5076
2740 5.3682
2741.5 5.2361
2742.9 5.1089
2744.4 4.9839
2745.8 4.8586
2747.3 4.7351
2748.8 4.6164
2750.2 4.5019
2751.7 4.3911
2753.1 4.2871
2754.6 4.1929
2756.1 4.1123
2757.5 4.0503
2759 4.0137
2760.5 4.0058
2761.9 4.0244
2763.4 4.0662
2764.9 4.1272
2766.4 4.1985
2767.8 4.2690
2769.3 4.3303
2770.8 4.3774
2772.3 4.4101
2773.8 4.4333
2775.2 4.4568
2776.7 4.4890
2778.2 4.5327
2779.7 4.5852
2781.2 4.6423
2782.7 4.6970
2784.2 4.7449
2785.7 4.7864
2787.2 4.8242
2788.7 4.8613
2790.2 4.8994
2791.7 4.9394
2793.2 4.9809
2794.7 5.0207
2796.2 5.0564
2797.7 5.0874
2799.2 5.1152
2800.7 5.1440
2802.2 5.1770
2803.8 5.2163
2805.3 5.2610
2806.8 5.3066
2808.3 5.3481
2809.8 5.3813
2811.4 5.4070
2812.9 5.4304
2814.4 5.4577
2815.9 5.4914
2817.5 5.5315
2819 5.5754
2820.5 5.6172
2822.1 5.6506
2823.6 5.6755
2825.2 5.6965
2826.7 5.7182
2828.2 5.7424
2829.8 5.7717
2831.3 5.8052
2832.9 5.8381
2834.4 5.8650
2836 5.8852
2837.5 5.9004
2839.1 5.9109
2840.6 5.9170
2842.2 5.9219
2843.7 5.9270
2845.3 5.9324
2846.9 5.9374
2848.4 5.9426
2850 5.9468
2851.6 5.9470
2853.1 5.9421
2854.7 5.9331
2856.3 5.9226
2857.9 5.9140
2859.4 5.9099
2861 5.9109
2862.6 5.9143
2864.2 5.9158
2865.8 5.9111
2867.3 5.8957
2868.9 5.8686
2870.5 5.8340
2872.1 5.7986
2873.7 5.7695
2875.3 5.7517
2876.9 5.7466
2878.5 5.7507
2880.1 5.7558
2881.7 5.7556
2883.3 5.7495
2884.9 5.7400
2886.5 5.7297
2888.1 5.7212
2889.7 5.7148
2891.3 5.7068
2892.9 5.6926
2894.6 5.6716
2896.2 5.6472
2897.8 5.6252
2899.4 5.6101
2901 5.6042
2902.7 5.6079
2904.3 5.6157
2905.9 5.6208
2907.5 5.6186
2909.2 5.6074
2910.8 5.5898
2912.4 5.5708
2914.1 5.5547
2915.7 5.5454
2917.4 5.5432
2919 5.5466
2920.7 5.5513
2922.3 5.5554
2923.9 5.5588
2925.6 5.5608
2927.2 5.5600
2928.9 5.5564
2930.6 5.5493
2932.2 5.5388
2933.9 5.5268
2935.5 5.5171
2937.2 5.5134
2938.9 5.5176
2940.5 5.5298
2942.2 5.5488
2943.9 5.5710
2945.5 5.5935
2947.2 5.6138
2948.9 5.6301
2950.6 5.6421
2952.3 5.6496
2953.9 5.6533
2955.6 5.6540
2957.3 5.6535
2959 5.6548
2960.7 5.6599
2962.4 5.6702
2964.1 5.6863
2965.8 5.7070
2967.5 5.7295
2969.2 5.7505
2970.9 5.7683
2972.6 5.7844
2974.3 5.7983
2976 5.8105
2977.7 5.8235
2979.4 5.8389
2981.1 5.8574
2982.8 5.8816
2984.5 5.9126
2986.3 5.9504
2988 5.9910
2989.7 6.0288
2991.4 6.0605
2993.2 6.0823
2994.9 6.0942
2996.6 6.1018
2998.4 6.1106
3000.1 6.1245
3001.8 6.1443
3003.6 6.1687
3005.3 6.1943
3007 6.2178
3008.8 6.2392
3010.5 6.2607
3012.3 6.2827
3014 6.3032
3015.8 6.3205
3017.6 6.3337
3019.3 6.3426
3021.1 6.3506
3022.8 6.3645
3024.6 6.3879
3026.4 6.4199
3028.1 6.4558
3029.9 6.4892
3031.7 6.5151
3033.4 6.5305
3035.2 6.5373
3037 6.5412
3038.8 6.5464
3040.6 6.5554
3042.3 6.5686
3044.1 6.5854
3045.9 6.6042
3047.7 6.6228
3049.5 6.6404
3051.3 6.6582
3053.1 6.6774
3054.9 6.6980
3056.7 6.7190
3058.5 6.7412
3060.3 6.7644
3062.1 6.7886
3063.9 6.8149
3065.7 6.8442
3067.5 6.8769
3069.4 6.9104
3071.2 6.9414
3073 6.9687
3074.8 6.9909
3076.6 7.0088
3078.5 7.0244
3080.3 7.0412
3082.1 7.0613
3084 7.0847
3085.8 7.1116
3087.6 7.1404
3089.5 7.1699
3091.3 7.2004
3093.2 7.2339
3095 7.2722
3096.9 7.3154
3098.7 7.3611
3100.6 7.4062
3102.4 7.4477
3104.3 7.4856
3106.1 7.5232
3108 7.5652
3109.9 7.6150
3111.7 7.6719
3113.6 7.7314
3115.5 7.7868
3117.4 7.8318
3119.2 7.8642
3121.1 7.8884
3123 7.9116
3124.9 7.9419
3126.8 7.9848
3128.6 8.0420
3130.5 8.1103
3132.4 8.1828
3134.3 8.2519
3136.2 8.3127
3138.1 8.3652
3140 8.4125
3141.9 8.4587
3143.8 8.5075
3145.7 8.5613
3147.6 8.6196
3149.5 8.6799
3151.5 8.7397
3153.4 8.8003
3155.3 8.8630
3157.2 8.9280
3159.1 8.9953
3161.1 9.0652
3163 9.1345
3164.9 9.2004
3166.9 9.2617
3168.8 9.3205
3170.7 9.3801
3172.7 9.4425
3174.6 9.5090
3176.6 9.5791
3178.5 9.6496
3180.5 9.7168
3182.4 9.7793
3184.4 9.8393
3186.3 9.8996
3188.3 9.9616
3190.2 10.0271
3192.2 10.0957
3194.2 10.1645
3196.1 10.2314
3198.1 10.2959
3200.1 10.3593
3202.1 10.4216
3204 10.4831
3206 10.5459
3208 10.6096
3210 10.6733
3212 10.7375
3214 10.8042
3216 10.8738
3218 10.9448
3220 11.0168
3222 11.0881
3224 11.1570
3226 11.2217
3228 11.2837
3230 11.3454
3232 11.4079
3234 11.4724
3236.1 11.5403
3238.1 11.6128
3240.1 11.6894
3242.1 11.7688
3244.2 11.8479
3246.2 11.9240
3248.2 11.9948
3250.3 12.0600
3252.3 12.1223
3254.3 12.1865
3256.4 12.2546
3258.4 12.3257
3260.5 12.3977
3262.5 12.4685
3264.6 12.5366
3266.6 12.6018
3268.7 12.6682
3270.8 12.7395
3272.8 12.8169
3274.9 12.8984
3277 12.9825
3279 13.0664
3281.1 13.1474
3283.2 13.2246
3285.3 13.2995
3287.4 13.3730
3289.4 13.4458
3291.5 13.5174
3293.6 13.5891
3295.7 13.6609
3297.8 13.7341
3299.9 13.8110
3302 13.8935
3304.1 13.9819
3306.2 14.0739
3308.3 14.1655
3310.4 14.2522
3312.6 14.3305
3314.7 14.4001
3316.8 14.4638
3318.9 14.5258
3321 14.5903
3323.2 14.6591
3325.3 14.7317
3327.4 14.8051
3329.6 14.8769
3331.7 14.9450
3333.9 15.0090
3336 15.0691
3338.2 15.1259
3340.3 15.1801
3342.5 15.2317
3344.6 15.2807
3346.8 15.3281
3348.9 15.3747
3351.1 15.4216
3353.3 15.4692
3355.4 15.5174
3357.6 15.5661
3359.8 15.6140
3362 15.6606
3364.1 15.7053
3366.3 15.7465
3368.5 15.7854
3370.7 15.8227
3372.9 15.8606
3375.1 15.9018
3377.3 15.9484
3379.5 16.0022
3381.7 16.0603
3383.9 16.1191
3386.1 16.1757
3388.3 16.2273
3390.6 16.2719
3392.8 16.3098
3395 16.3410
3397.2 16.3659
3399.4 16.3837
3401.7 16.3964
3403.9 16.4077
3406.1 16.4213
3408.4 16.4421
3410.6 16.4729
3412.9 16.5139
3415.1 16.5642
3417.4 16.6235
3419.6 16.6945
3421.9 16.7812
3424.1 16.8881
3426.4 17.0183
3428.7 17.1699
3430.9 17.3349
3433.2 17.5029
3435.5 17.6638
3437.8 17.8115
3440 17.9453
3442.3 18.0681
3444.6 18.1865
3446.9 18.3049
3449.2 18.4233
3451.5 18.5395
3453.8 18.6503
3456.1 18.7541
3458.4 18.8508
3460.7 18.9428
3463 19.0319
3465.3 19.1198
3467.7 19.2043
3470 19.2832
3472.3 19.3554
3474.6 19.4228
3477 19.4887
3479.3 19.5575
3481.6 19.6323
3484 19.7133
3486.3 19.7971
3488.7 19.8771
3491 19.9462
3493.4 19.9999
3495.7 20.0375
3498.1 20.0632
3500.4 20.0861
3502.8 20.1213
3505.2 20.1833
3507.5 20.2832
3509.9 20.4248
3512.3 20.6035
3514.7 20.8068
3517.1 21.0187
3519.5 21.2228
3521.8 21.4091
3524.2 21.5737
3526.6 21.7176
3529 21.8454
3531.4 21.9631
3533.8 22.0754
3536.3 22.1850
3538.7 22.2924
3541.1 22.3974
3543.5 22.4997
3545.9 22.6003
3548.4 22.6999
3550.8 22.8002
3553.2 22.9024
3555.7 23.0060
3558.1 23.1086
3560.5 23.2074
3563 23.3024
3565.4 23.3937
3567.9 23.4819
3570.4 23.5681
3572.8 23.6547
3575.3 23.7429
3577.7 23.8317
3580.2 23.9211
3582.7 24.0114
3585.2 24.1030
3587.6 24.1943
3590.1 24.2848
3592.6 24.3754
3595.1 24.4653
3597.6 24.5526
3600.1 24.6369
3602.6 24.7197
3605.1 24.8017
3607.6 24.8818
3610.1 24.9597
3612.7 25.0353
3615.2 25.1093
3617.7 25.1801
3620.2 25.2494
3622.7 25.3207
3625.3 25.3959
3627.8 25.4741
3630.4 25.5536
3632.9 25.6332
3635.5 25.7101
3638 25.7824
3640.6 25.8498
3643.1 25.9145
3645.7 25.9802
3648.2 26.0478
3650.8 26.1186
3653.4 26.1913
3656 26.2629
3658.5 26.3307
3661.1 26.3935
3663.7 26.4525
3666.3 26.5117
3668.9 26.5744
3671.5 26.6435
3674.1 26.7184
3676.7 26.7958
3679.3 26.8720
3681.9 26.9440
3684.5 27.0114
3687.2 27.0759
3689.8 27.1408
3692.4 27.2096
3695 27.2822
3697.7 27.3549
3700.3 27.4250
3703 27.4899
3705.6 27.5500
3708.3 27.6086
3710.9 27.6699
3713.6 27.7353
3716.2 27.8032
3718.9 27.8693
3721.6 27.9296
3724.2 27.9828
3726.9 28.0312
3729.6 28.0795
3732.3 28.1335
3735 28.1952
3737.7 28.2638
3740.4 28.3356
3743.1 28.4062
3745.8 28.4723
3748.5 28.5329
3751.2 28.5895
3753.9 28.6454
3756.6 28.7035
3759.4 28.7646
3762.1 28.8281
3764.8 28.8923
3767.6 28.9552
3770.3 29.0168
3773 29.0775
3775.8 29.1398
3778.5 29.2043
3781.3 29.2697
3784.1 29.3349
3786.8 29.3974
3789.6 29.4567
3792.4 29.5121
3795.1 29.5629
3797.9 29.6095
3800.7 29.6523
3803.5 29.6918
3806.3 29.7301
3809.1 29.7709
3811.9 29.8168
3814.7 29.8691
3817.5 29.9262
3820.3 29.9848
3823.1 30.0407
3825.9 30.0900
3828.8 30.1313
3831.6 30.1672
3834.4 30.2013
3837.3 30.2375
3840.1 30.2790
3843 30.3259
3845.8 30.3752
3848.7 30.4228
3851.5 30.4653
3854.4 30.5019
3857.3 30.5336
3860.1 30.5634
3863 30.5949
3865.9 30.6303
3868.8 30.6694
3871.7 30.7109
3874.6 30.7525
3877.5 30.7929
3880.4 30.8290
3883.3 30.8603
3886.2 30.8875
3889.1 30.9106
3892 30.9303
3894.9 30.9496
3897.9 30.9709
3900.8 30.9958
3903.7 31.0248
3906.7 31.0588
3909.6 31.0966
3912.6 31.1340
3915.5 31.1674
3918.5 31.1955
3921.4 31.2174
3924.4 31.2336
3927.4 31.2465
3930.4 31.2616
3933.3 31.2797
3936.3 31.2995
3939.3 31.3188
3942.3 31.3341
3945.3 31.3444
3948.3 31.3500
3951.3 31.3547
3954.4 31.3615
3957.4 31.3713
3960.4 31.3826
3963.4 31.3930
3966.5 31.3996
3969.5 31.4015
3972.5 31.4003
3975.6 31.3974
3978.6 31.3949
3981.7 31.3949
3984.7 31.3981
3987.8 31.4042
3990.9 31.4130
3994 31.4230
3997 31.4320
4000.1 31.4382
4003.2 31.4413
4006.3 31.4421
4009.4 31.4424
4012.5 31.4447
4015.6 31.4494
4018.7 31.4545
4021.8 31.4589
4025 31.4616
4028.1 31.4621
4031.2 31.4606
4034.4 31.4594
4037.5 31.4609
4040.6 31.4643
4043.8 31.4676
4047 31.4682
4050.1 31.4638
4053.3 31.4508
4056.5 31.4299
4059.6 31.4049
4062.8 31.3820
4066 31.3652
4069.2 31.3569
4072.4 31.3573
4075.6 31.3626
4078.8 31.3664
4082 31.3652
4085.2 31.3566
4088.4 31.3415
4091.7 31.3226
4094.9 31.3041
4098.1 31.2870
4101.4 31.2697
4104.6 31.2507
4107.9 31.2275
4111.1 31.1996
4114.4 31.1684
4117.7 31.1383
4120.9 31.1134
4124.2 31.0944
4127.5 31.0800
4130.8 31.0673
4134.1 31.0541
4137.4 31.0370
4140.7 31.0155
4144 30.9909
4147.3 30.9645
4150.6 30.9374
4154 30.9108
4157.3 30.8864
4160.6 30.8647
4164 30.8446
4167.3 30.8251
4170.7 30.8039
4174 30.7800
4177.4 30.7521
4180.8 30.7214
4184.1 30.6901
4187.5 30.6601
4190.9 30.6322
4194.3 30.6066
4197.7 30.5817
4201.1 30.5553
4204.5 30.5258
4207.9 30.4919
4211.3 30.4540
4214.8 30.4140
4218.2 30.3737
4221.6 30.3346
4225.1 30.2973
4228.5 30.2621
4232 30.2301
4235.4 30.2013
4238.9 30.1752
4242.4 30.1515
4245.8 30.1279
4249.3 30.0988
4252.8 30.0588
4256.3 30.0051
4259.8 29.9399
4263.3 29.8678
4266.8 29.7978
4270.3 29.7394
4273.8 29.6987
4277.4 29.6755
4280.9 29.6655
4284.4 29.6620
4288 29.6591
4291.5 29.6524
4295.1 29.6418
4298.6 29.6293
4302.2 29.6169
4305.8 29.6054
4309.4 29.5932
4312.9 29.5768
4316.5 29.5539
4320.1 29.5231
4323.7 29.4858
4327.3 29.4447
4331 29.4030
4334.6 29.3626
4338.2 29.3229
4341.8 29.2814
4345.5 29.2363
4349.1 29.1857
4352.8 29.1291
4356.4 29.0663
4360.1 28.9987
4363.8 28.9286
4367.4 28.8569
4371.1 28.7836
4374.8 28.7101
4378.5 28.6364
4382.2 28.5615
4385.9 28.4845
4389.6 28.4075
4393.4 28.3332
4397.1 28.2612
4400.8 28.1916
4404.5 28.1242
4408.3 28.0574
4412 27.9894
4415.8 27.9203
4419.6 27.8520
4423.3 27.7865
4427.1 27.7245
4430.9 27.6659
4434.7 27.6083
4438.5 27.5485
4442.3 27.4843
4446.1 27.4155
4449.9 27.3437
4453.7 27.2721
4457.6 27.2040
4461.4 27.1420
4465.2 27.0871
4469.1 27.0402
4473 27.0024
4476.8 26.9738
4480.7 26.9548
4484.6 26.9440
4488.4 26.9404
4492.3 26.9421
4496.2 26.9487
4500.1 26.9616
4504 26.9819
4508 27.0087
4511.9 27.0400
4515.8 27.0710
4519.7 27.0966
4523.7 27.1130
4527.6 27.1193
4531.6 27.1171
4535.6 27.1093
4539.5 27.0975
4543.5 27.0822
4547.5 27.0619
4551.5 27.0351
4555.5 27.0009
4559.5 26.9599
4563.5 26.9145
4567.5 26.8669
4571.6 26.8185
4575.6 26.7690
4579.6 26.7172
4583.7 26.6616
4587.7 26.6017
4591.8 26.5385
4595.9 26.4736
4600 26.4089
4604 26.3451
4608.1 26.2814
4612.2 26.2153
4616.3 26.1440
4620.5 26.0659
4624.6 25.9804
4628.7 25.8888
4632.8 25.7939
4637 25.6989
4641.1 25.6059
4645.3 25.5168
4649.5 25.4304
4653.6 25.3454
4657.8 25.2587
4662 25.1679
4666.2 25.0744
4670.4 24.9821
4674.6 24.8975
4678.8 24.8285
4683.1 24.7802
4687.3 24.7543
4691.5 24.7470
4695.8 24.7504
4700 24.7565
4704.3 24.7580
4708.6 24.7497
4712.9 24.7294
4717.2 24.6979
4721.5 24.6579
4725.8 24.6118
4730.1 24.5617
4734.4 24.5092
4738.7 24.4555
4743.1 24.3998
4747.4 24.3415
4751.7 24.2802
4756.1 24.2153
4760.5 24.1475
4764.8 24.0783
4769.2 24.0087
4773.6 23.9406
4778 23.8757
4782.4 23.8144
4786.8 23.7558
4791.3 23.6976
4795.7 23.6386
4800.1 23.5766
4804.6 23.5102
4809 23.4406
4813.5 23.3681
4818 23.2934
4822.5 23.2158
4827 23.1347
4831.5 23.0483
4836 22.9538
4840.5 22.8498
4845 22.7355
4849.5 22.6105
4854.1 22.4738
4858.6 22.3249
4863.2 22.1633
4867.8 21.9868
4872.3 21.7919
4876.9 21.5754
4881.5 21.3334
4886.1 21.0622
4890.7 20.7614
4895.3 20.4350
4900 20.0913
4904.6 19.7425
4909.2 19.4045
4913.9 19.0910
4918.6 18.8132
4923.2 18.5759
4927.9 18.3769
4932.6 18.2080
4937.3 18.0561
4942 17.9052
4946.7 17.7404
4951.4 17.5505
4956.2 17.3308
4960.9 17.0837
4965.7 16.8193
4970.4 16.5517
4975.2 16.2961
4980 16.0634
4984.8 15.8598
4989.6 15.6862
4994.4 15.5417
4999.2 15.4225
5004 15.3271
5008.8 15.2546
5013.7 15.2031
5018.5 15.1684
5023.4 15.1450
5028.3 15.1264
5033.2 15.1084
5038 15.0864
5043 15.0603
5047.9 15.0317
5052.8 15.0034
5057.7 14.9787
5062.7 14.9616
5067.6 14.9563
5072.6 14.9648
5077.5 14.9875
5082.5 15.0219
5087.5 15.0632
5092.5 15.1030
5097.5 15.1330
5102.5 15.1467
5107.5 15.1403
5112.6 15.1137
5117.6 15.0713
5122.7 15.0202
5127.7 14.9682
5132.8 14.9213
5137.9 14.8820
5143 14.8510
5148.1 14.8244
5153.2 14.7985
5158.4 14.7702
5163.5 14.7385
5168.6 14.7036
5173.8 14.6660
5179 14.6247
5184.2 14.5771
5189.3 14.5178
5194.5 14.4404
5199.8 14.3379
5205 14.2043
5210.2 14.0359
5215.4 13.8305
5220.7 13.5901
5226 13.3193
5231.2 13.0266
5236.5 12.7225
5241.8 12.4182
5247.1 12.1218
5252.4 11.8393
5257.8 11.5735
5263.1 11.3247
5268.4 11.0923
5273.8 10.8767
5279.2 10.6784
5284.6 10.4983
5290 10.3369
5295.4 10.1955
5300.8 10.0735
5306.2 9.9690
5311.6 9.8796
5317.1 9.8008
5322.5 9.7287
5328 9.6606
5333.5 9.5967
5339 9.5407
5344.5 9.5000
5350 9.4825
5355.5 9.4968
5361.1 9.5490
5366.6 9.6423
5372.2 9.7775
5377.8 9.9521
5383.3 10.1596
5388.9 10.3904
5394.5 10.6318
5400.2 10.8706
5405.8 11.0945
5411.4 11.2946
5417.1 11.4663
5422.8 11.6069
5428.4 11.7153
5434.1 11.7910
5439.8 11.8335
5445.5 11.8432
5451.3 11.8222
5457 11.7754
5462.8 11.7075
5468.5 11.6237
5474.3 11.5280
5480.1 11.4231
5485.9 11.3108
5491.7 11.1924
5497.5 11.0696
5503.3 10.9436
5509.2 10.8154
5515.1 10.6853
5520.9 10.5537
5526.8 10.4223
5532.7 10.2932
5538.6 10.1687
5544.5 10.0512
5550.5 9.9436
5556.4 9.8471
5562.4 9.7632
5568.4 9.6933
5574.4 9.6379
5580.4 9.5964
5586.4 9.5683
5592.4 9.5525
5598.4 9.5486
5604.5 9.5561
5610.6 9.5754
5616.6 9.6069
5622.7 9.6504
5628.8 9.7051
5634.9 9.7702
5641.1 9.8445
5647.2 9.9245
5653.4 10.0063
5659.6 10.0842
5665.7 10.1518
5671.9 10.2024
5678.2 10.2309
5684.4 10.2351
5690.6 10.2141
5696.9 10.1697
5703.1 10.1064
5709.4 10.0285
5715.7 9.9402
5722 9.8447
5728.3 9.7448
5734.7 9.6418
5741 9.5364
5747.4 9.4289
5753.8 9.3213
5760.2 9.2151
5766.6 9.1108
5773 9.0095
5779.4 8.9099
5785.9 8.8086
5792.3 8.7024
5798.8 8.5879
5805.3 8.4643
5811.8 8.3323
5818.4 8.1933
5824.9 8.0503
5831.4 7.9045
5838 7.7566
5844.6 7.6062
5851.2 7.4512
5857.8 7.2898
5864.4 7.1211
5871.1 6.9443
5877.7 6.7607
5884.4 6.5718
5891.1 6.3811
5897.8 6.1909
5904.5 6.0039
5911.2 5.8235
5918 5.6526
5924.7 5.4949
5931.5 5.3515
5938.3 5.2241
5945.1 5.1118
5952 5.0127
5958.8 4.9236
5965.7 4.8413
5972.5 4.7624
5979.4 4.6841
5986.3 4.6052
5993.2 4.5249
6000.2 4.4436
6007.1 4.3623
6014.1 4.2820
6021.1 4.2038
6028.1 4.1284
6035.1 4.0571
6042.1 3.9919
6049.2 3.9336
6056.3 3.8818
6063.3 3.8345
6070.4 3.7891
6077.6 3.7441
6084.7 3.6995
6091.8 3.6565
6099 3.6184
6106.2 3.5884
6113.4 3.5679
6120.6 3.5564
6127.8 3.5527
6135.1 3.5564
6142.4 3.5666
6149.6 3.5835
6157 3.6072
6164.3 3.6379
6171.6 3.6765
6179 3.7226
6186.3 3.7776
6193.7 3.8415
6201.1 3.9150
6208.6 3.9974
6216 4.0881
6223.5 4.1841
6231 4.2839
6238.5 4.3865
6246 4.4910
6253.5 4.5974
6261.1 4.7063
6268.6 4.8181
6276.2 4.9314
6283.8 5.0447
6291.4 5.1553
6299.1 5.2617
6306.8 5.3628
6314.4 5.4585
6322.1 5.5495
6329.9 5.6374
6337.6 5.7224
6345.4 5.8049
6353.1 5.8838
6360.9 5.9577
6368.7 6.0244
6376.6 6.0824
6384.4 6.1308
6392.3 6.1687
6400.2 6.1960
6408.1 6.2146
6416 6.2246
6424 6.2265
6432 6.2202
6439.9 6.2056
6448 6.1824
6456 6.1504
6464 6.1106
6472.1 6.0637
6480.2 6.0105
6488.3 5.9507
6496.4 5.8845
6504.6 5.8135
6512.8 5.7402
6520.9 5.6689
6529.2 5.6050
6537.4 5.5535
6545.6 5.5178
6553.9 5.4997
6562.2 5.4968
6570.5 5.5061
6578.9 5.5232
6587.2 5.5439
6595.6 5.5649
6604 5.5845
6612.4 5.6015
6620.9 5.6164
6629.4 5.6284
6637.8 5.6372
6646.4 5.6413
6654.9 5.6389
6663.4 5.6291
6672 5.6130
6680.6 5.5915
6689.2 5.5691
6697.9 5.5493
6706.5 5.5344
6715.2 5.5244
6723.9 5.5173
6732.7 5.5090
6741.4 5.4951
6750.2 5.4724
6759 5.4392
6767.8 5.3967
6776.7 5.3476
6785.5 5.2952
6794.4 5.2424
6803.4 5.1907
6812.3 5.1406
6821.3 5.0920
6830.2 5.0444
6839.3 4.9978
6848.3 4.9536
6857.3 4.9119
6866.4 4.8716
6875.5 4.8323
6884.7 4.7922
6893.8 4.7493
6903 4.7029
6912.2 4.6533
6921.4 4.6020
6930.7 4.5493
6940 4.4946
6949.3 4.4382
6958.6 4.3804
6967.9 4.3210
6977.3 4.2615
6986.7 4.2041
6996.2 4.1518
7005.6 4.1050
7015.1 4.0632
7024.6 4.0261
7034.1 3.9927
7043.7 3.9614
7053.3 3.9307
7062.9 3.9009
7072.5 3.8728
7082.2 3.8452
7091.9 3.8166
7101.6 3.7856
7111.3 3.7517
7121.1 3.7146
7130.9 3.6750
7140.7 3.6355
7150.6 3.5989
7160.4 3.5644
7170.3 3.5308
7180.3 3.4961
7190.2 3.4585
7200.2 3.4172
7210.2 3.3718
7220.3 3.3240
7230.3 3.2751
7240.4 3.2270
7250.6 3.1799
7260.7 3.1345
7270.9 3.0920
7281.1 3.0520
7291.4 3.0139
7301.6 2.9766
7311.9 2.9399
7322.3 2.9043
7332.6 2.8701
7343 2.8389
7353.4 2.8115
7363.9 2.7876
7374.3 2.7644
7384.8 2.7395
7395.4 2.7117
7405.9 2.6794
7416.5 2.6440
7427.2 2.6089
7437.8 2.5774
7448.5 2.5508
7459.2 2.5288
7470 2.5110
7480.7 2.4941
7491.6 2.4746
7502.4 2.4497
7513.3 2.4204
7524.2 2.3879
7535.1 2.3547
7546.1 2.3230
7557.1 2.2959
7568.1 2.2739
7579.2 2.2556
7590.3 2.2397
7601.4 2.2253
7612.6 2.2124
7623.8 2.2012
7635 2.1921
7646.2 2.1858
7657.5 2.1821
7668.9 2.1802
7680.2 2.1776
7691.6 2.1716
7703.1 2.1623
7714.5 2.1497
7726 2.1355
7737.5 2.1223
7749.1 2.1135
7760.7 2.1096
7772.3 2.1099
7784 2.1124
7795.7 2.1172
7807.5 2.1235
7819.2 2.1328
7831 2.1470
7842.9 2.1685
7854.8 2.1977
7866.7 2.2341
7878.6 2.2778
7890.6 2.3281
7902.7 2.3852
7914.7 2.4474
7926.8 2.5132
7939 2.5801
7951.2 2.6462
7963.4 2.7104
7975.6 2.7727
7987.9 2.8357
8000.2 2.9023
8012.6 2.9756
8025 3.0579
8037.4 3.1504
8049.9 3.2544
8062.4 3.3699
8075 3.4978
8087.6 3.6387
8100.2 3.7926
8112.9 3.9578
8125.6 4.1296
8138.4 4.3010
8151.2 4.4643
8164 4.6130
8176.9 4.7429
8189.8 4.8530
8202.8 4.9443
8215.8 5.0188
8228.8 5.0771
8241.9 5.1189
8255 5.1433
8268.2 5.1516
8281.4 5.1474
8294.6 5.1360
8307.9 5.1230
8321.3 5.1130
8334.7 5.1081
8348.1 5.1072
8361.5 5.1077
8375 5.1084
8388.6 5.1094
8402.2 5.1120
8415.8 5.1174
8429.5 5.1257
8443.2 5.1365
8457 5.1479
8470.8 5.1582
8484.7 5.1684
8498.6 5.1799
8512.6 5.1907
8526.6 5.1914
8540.6 5.1697
8554.7 5.1135
8568.8 5.0188
8583 4.8953
8597.3 4.7688
8611.6 4.6736
8625.9 4.6391
8640.3 4.6780
8654.7 4.7832
8669.2 4.9316
8683.7 5.0913
8698.2 5.2348
8712.9 5.3472
8727.5 5.4280
8742.2 5.4856
8757 5.5307
8771.8 5.5724
8786.7 5.6145
8801.6 5.6560
8816.6 5.6929
8831.6 5.7226
8846.7 5.7444
8861.8 5.7578
8877 5.7639
8892.2 5.7634
8907.5 5.7561
8922.8 5.7412
8938.2 5.7212
8953.6 5.6994
8969.1 5.6799
8984.7 5.6672
9000.3 5.6665
9015.9 5.6804
9031.6 5.7073
9047.4 5.7444
9063.2 5.7883
9079.1 5.8345
9095 5.8760
9111 5.9094
9127 5.9343
9143.1 5.9526
9159.3 5.9668
9175.5 5.9822
9191.8 6.0034
9208.1 6.0320
9224.5 6.0649
9240.9 6.0969
9257.4 6.1213
9274 6.1296
9290.6 6.1164
9307.3 6.0803
9324 6.0229
9340.8 5.9494
9357.7 5.8652
9374.6 5.7776
9391.6 5.6916
9408.6 5.6116
9425.7 5.5390
9442.9 5.4751
9460.1 5.4204
9477.4 5.3745
9494.8 5.3364
9512.2 5.3054
9529.7 5.2793
9547.2 5.2563
9564.9 5.2327
9582.5 5.2043
9600.3 5.1682
9618.1 5.1228
9636 5.0669
9653.9 5.0017
9671.9 4.9282
9690 4.8503
9708.2 4.7707
9726.4 4.6924
9744.7 4.6172
9763 4.5488
9781.4 4.4883
9799.9 4.4355
9818.5 4.3891
9837.1 4.3479
9855.8 4.3096
9874.6 4.2712
9893.4 4.2319
9912.3 4.1926
9931.3 4.1526
9950.4 4.1108
9969.5 4.0666
9988.7 4.0200
10008 3.9714
10027.4 3.9216
10046.8 3.8730
10066.3 3.8288
10085.9 3.7886
10105.6 3.7502
10125.3 3.7117
10145.1 3.6711
10165 3.6272
10185 3.5808
10205 3.5351
10225.1 3.4946
10245.4 3.4619
10265.6 3.4380
10286 3.4219
10306.5 3.4101
10327 3.3982
10347.6 3.3818
10368.3 3.3606
10389.1 3.3350
10409.9 3.3066
10430.9 3.2778
10451.9 3.2507
10473 3.2266
10494.2 3.2051
10515.5 3.1851
10536.9 3.1663
10558.4 3.1487
10579.9 3.1318
10601.5 3.1167
10623.3 3.1059
10645.1 3.1006
10667 3.0991
10689 3.0994
10711.1 3.0979
10733.2 3.0928
10755.5 3.0828
10777.9 3.0691
10800.3 3.0542
10822.9 3.0410
10845.5 3.0305
10868.2 3.0242
10891.1 3.0227
10914 3.0278
10937 3.0400
10960.2 3.0601
10983.4 3.0874
11006.7 3.1211
11030.1 3.1582
11053.6 3.1955
11077.3 3.2292
11101 3.2566
11124.8 3.2773
11148.7 3.2932
11172.7 3.3069
11196.9 3.3213
11221.1 3.3376
11245.5 3.3540
11269.9 3.3655
11294.4 3.3691
11319.1 3.3647
11343.9 3.3538
11368.8 3.3398
11393.7 3.3286
11418.8 3.3232
11444 3.3242
11469.4 3.3298
11494.8 3.3391
11520.3 3.3524
11546 3.3684
11571.8 3.3860
11597.7 3.4060
11623.7 3.4270
11649.8 3.4460
11676 3.4597
11702.4 3.4665
11728.9 3.4629
11755.5 3.4448
11782.2 3.4092
11809 3.3567
11836 3.2893
11863.1 3.2119
11890.3 3.1309
11917.6 3.0515
11945 2.9770
11972.6 2.9062
12000.3 2.8357
12028.2 2.7615
12056.2 2.6824
12084.3 2.5976
12112.5 2.5073
12140.9 2.4121
12169.4 2.3124
12198 2.2102
12226.8 2.1077
12255.7 2.0122
12284.7 1.9343
12313.9 1.8843
12343.2 1.8677
12372.7 1.8833
12402.3 1.9219
12432 1.9690
12461.9 2.0090
12491.9 2.0293
12522.1 2.0251
12552.4 2.0024
12582.9 1.9722
12613.5 1.9490
12644.3 1.9451
12675.2 1.9676
12706.3 2.0144
12737.5 2.0745
12768.8 2.1331
12800.4 2.1770
12832.1 2.1980
12863.9 2.1953
12895.9 2.1758
12928.1 2.1504
12960.4 2.1289
12992.9 2.1167
13025.5 2.1145
13058.3 2.1199
13091.3 2.1284
13124.4 2.1362
13157.7 2.1421
13191.2 2.1462
13224.9 2.1494
13258.7 2.1533
13292.7 2.1592
13326.9 2.1674
13361.2 2.1772
13395.7 2.1873
13430.4 2.1948
13465.3 2.1965
13500.4 2.1899
13535.6 2.1772
13571.1 2.1621
13606.7 2.1489
13642.5 2.1421
13678.5 2.1440
13714.7 2.1526
13751.1 2.1616
13787.6 2.1648
13824.4 2.1589
13861.4 2.1426
13898.5 2.1162
13935.9 2.0818
13973.4 2.0420
14011.2 1.9971
