# Soil optical properties : Brown fine sandy loam
# Colums : Wavelength(nm) Reflectance(%) Transmitance(%)
#
300 6.7481
400 6.7481
401 6.7562
402 7.0562
403 7.0610
404 7.0623
405 7.0603
406 7.1929
407 7.0642
408 7.5344
409 7.4049
410 7.5353
411 7.4049
412 7.5344
413 7.5740
414 7.5739
415 7.5738
416 7.7430
417 7.6129
418 7.7448
419 7.7877
420 7.7897
421 7.7887
422 8.1329
423 8.1258
424 8.4247
425 8.2501
426 8.3781
427 8.4180
428 8.4180
429 8.2963
430 8.4644
431 8.5882
432 8.7604
433 8.7619
434 8.8889
435 8.9369
436 8.9227
437 8.9156
438 8.9085
439 9.3624
440 9.3738
441 9.3624
442 9.0303
443 9.3578
444 9.7861
445 9.5234
446 9.5109
447 9.6782
448 9.9550
449 9.9522
450 9.8343
451 10.0844
452 10.0752
453 10.0813
454 10.0721
455 10.0691
456 10.5256
457 10.5363
458 10.5609
459 10.3772
460 10.5719
461 10.7277
462 10.5499
463 10.7354
464 10.8554
465 11.0102
466 11.0060
467 10.9977
468 10.8356
469 10.9977
470 10.9935
471 10.9977
472 11.0018
473 11.0102
474 11.1250
475 11.1292
476 11.1511
477 11.2694
478 11.1381
479 11.5775
480 11.5968
481 11.7238
482 11.6994
483 11.7043
484 11.8360
485 11.8013
486 11.7964
487 11.9505
488 11.9454
489 11.8062
490 11.9403
491 12.0285
492 12.1817
493 12.3450
494 12.5495
495 12.5382
496 12.4991
497 12.3665
498 12.5102
499 12.4713
500 12.4713
501 12.6032
502 12.5977
503 12.5536
504 12.4333
505 12.5427
506 12.9983
507 12.9573
508 12.9690
509 13.0948
510 13.2838
511 13.4162
512 13.3913
513 13.3603
514 13.3665
515 13.5488
516 13.5362
517 13.5552
518 13.4907
519 13.7428
520 13.9279
521 13.8952
522 13.7175
523 13.8369
524 13.9554
525 13.9489
526 13.9685
527 14.0740
528 14.1925
529 14.1925
530 14.4562
531 14.4699
532 14.4836
533 14.6650
534 14.6440
535 14.6022
536 14.7206
537 14.8743
538 14.8601
539 14.8815
540 14.9029
541 14.9928
542 15.2513
543 15.3918
544 15.3621
545 15.3177
546 15.4353
547 15.8332
548 15.8332
549 15.9197
550 15.9669
551 16.0366
552 15.9904
553 16.1057
554 16.3596
555 16.4826
556 16.6379
557 16.6460
558 16.6703
559 16.8082
560 16.8847
561 16.9605
562 17.3705
563 17.2789
564 17.7122
565 17.7122
566 17.4048
567 17.8563
568 17.9637
569 17.6034
570 17.7110
571 17.6580
572 17.9523
573 18.2241
574 18.2180
575 18.6012
576 18.7687
577 18.4209
578 18.7488
579 18.6899
580 19.0996
581 18.6647
582 18.7546
583 19.0717
584 18.7741
585 19.4159
586 19.4368
587 19.4928
588 19.3912
589 19.3606
590 19.3402
591 19.5106
592 19.5003
593 19.5678
594 19.5268
595 19.8468
596 19.8783
597 20.2659
598 20.1278
599 20.2988
600 20.6530
601 20.6916
602 20.2878
603 20.3714
604 20.3189
605 20.7130
606 20.7021
607 20.7021
608 20.6513
609 20.7975
610 20.7975
611 21.2905
612 21.0094
613 21.0094
614 21.0094
615 21.0313
616 21.1083
617 21.4268
618 21.2792
619 21.3244
620 21.4499
621 21.7915
622 21.3747
623 21.5001
624 21.4889
625 21.7915
626 21.6256
627 22.0106
628 22.1602
629 21.7852
630 21.7852
631 22.1910
632 21.8879
633 22.6036
634 22.6157
635 22.6278
636 22.6766
637 22.5323
638 22.4965
639 22.3663
640 22.1480
641 22.3623
642 22.7955
643 22.8315
644 22.8195
645 22.7596
646 22.9083
647 23.0331
648 23.2572
649 23.0939
650 23.4074
651 23.2314
652 23.2314
653 23.2314
654 23.2560
655 23.1701
656 23.0089
657 23.3829
658 23.2883
659 23.6197
660 23.7829
661 23.9596
662 23.8958
663 23.6759
664 23.6883
665 23.8814
666 23.7809
667 23.8185
668 24.0163
669 24.0516
670 24.3027
671 24.3800
672 24.4449
673 24.3284
674 24.4398
675 24.6100
676 24.6491
677 24.5986
678 24.9184
679 24.8918
680 24.9104
681 24.8085
682 25.2660
683 25.3337
684 25.3337
685 25.5428
686 25.2525
687 25.1452
688 25.3798
689 25.4767
690 25.6141
691 25.6961
692 25.7787
693 25.7649
694 25.7236
695 25.6561
696 25.9013
697 26.0251
698 26.1930
699 25.9432
700 26.1189
701 26.3489
702 26.2141
703 26.3086
704 26.2811
705 26.3890
706 26.4442
707 26.6347
708 26.6347
709 26.9440
710 26.8519
711 26.7831
712 26.9740
713 27.0251
714 27.0110
715 27.0477
716 27.0335
717 27.0195
718 27.1973
719 27.3069
720 27.4687
721 27.3826
722 27.3683
723 27.4893
724 27.5037
725 27.5325
726 27.6972
727 27.8332
728 27.8995
729 27.9770
730 28.1268
731 28.0355
732 27.9670
733 27.9960
734 28.1415
735 28.0251
736 28.2666
737 28.2961
738 28.6290
739 28.5082
740 28.6439
741 28.6888
742 28.7647
743 28.9309
744 28.7497
745 28.7505
746 28.7058
747 28.7505
748 28.6601
749 28.7505
750 29.0960
751 29.0665
752 29.1870
753 29.2923
754 29.2373
755 29.3515
756 29.5332
757 29.7121
758 29.4759
759 29.4759
760 29.4759
761 29.5217
762 29.4759
763 29.5651
764 29.5957
765 29.8198
766 29.7890
767 29.7271
768 30.0281
769 30.0126
770 30.2672
771 30.1165
772 30.1580
773 30.1424
774 30.2359
775 30.2986
776 30.2986
777 30.4183
778 30.3396
779 30.3553
780 30.4747
781 30.4905
782 30.6659
783 30.8330
784 30.9524
785 30.8245
786 30.9043
787 30.6045
788 30.6765
789 30.8513
790 30.8828
791 30.6922
792 30.7079
793 31.3648
794 31.1682
795 31.0171
796 30.8135
797 30.9857
798 31.1289
799 31.1346
800 31.4908
804 31.4597
808 31.9572
812 32.0770
816 32.0459
820 32.2772
824 32.7721
828 32.8602
832 32.9641
836 33.0288
840 33.2753
844 33.3406
848 33.4821
852 33.4512
856 33.7122
860 33.7825
864 33.9652
868 33.9698
872 34.0393
876 34.4679
880 34.5029
884 34.6206
888 34.7354
892 34.8195
896 34.9166
900 35.1712
904 35.4889
908 35.6230
912 35.7520
916 35.9537
920 36.1352
924 36.1676
928 36.4009
932 36.7526
936 36.7332
940 36.7859
944 37.1437
948 37.2252
952 37.3602
956 37.5224
960 37.9278
964 37.7365
968 38.0083
972 37.7271
976 38.1019
980 38.1273
984 38.3223
988 38.4442
992 38.7063
996 38.8221
1000 38.9334
1004 39.3602
1008 39.2853
1012 39.5948
1016 39.7096
1020 39.3291
1024 39.6746
1028 39.8277
1032 39.8346
1036 40.2313
1040 40.4455
1044 40.9065
1048 41.1945
1052 41.0370
1056 40.5755
1060 40.5562
1064 41.0174
1068 41.2475
1072 41.4058
1076 41.2278
1080 41.3749
1084 41.5700
1088 41.7877
1092 41.9377
1096 41.9550
1100 42.0095
1104 41.8575
1108 42.1918
1112 42.3596
1116 42.5473
1120 42.1290
1124 42.7226
1128 42.7958
1132 42.3777
1136 42.5637
1140 42.9008
1144 42.6123
1148 42.5901
1152 42.5394
1156 42.6471
1160 42.5984
1164 42.6603
1168 42.8411
1172 42.9513
1176 43.0919
1180 43.1726
1184 43.1929
1188 43.2334
1192 43.4260
1196 43.3555
1200 43.3964
1204 43.6942
1208 43.9593
1212 44.3578
1216 44.6895
1220 44.7414
1224 44.7255
1228 44.8295
1232 44.8564
1236 44.8059
1240 44.4065
1244 44.0293
1248 44.1200
1252 44.7374
1256 45.0883
1260 45.2705
1264 45.2958
1268 45.4772
1272 45.7022
1276 45.8982
1280 45.9450
1284 46.0241
1288 46.1808
1292 46.0488
1296 46.1605
1300 46.2267
1304 46.1831
1308 46.3910
1312 46.2814
1316 46.2814
1320 46.2377
1324 46.2595
1328 46.0083
1332 45.9017
1336 46.1086
1340 45.9710
1344 46.0876
1348 45.9779
1352 45.6721
1356 45.9034
1360 46.1905
1364 46.0592
1368 45.9211
1372 45.8554
1376 45.5372
1380 45.3826
1384 45.0407
1388 44.8155
1392 44.6485
1396 44.3042
1400 44.0833
1404 43.7728
1408 43.5040
1412 43.5863
1416 43.6879
1420 43.8229
1424 43.9459
1428 44.0696
1432 43.9715
1436 44.1525
1440 44.2616
1444 44.1164
1448 43.9778
1452 44.1375
1456 44.2608
1460 44.4679
1464 44.6141
1468 44.6811
1472 44.8320
1476 44.9409
1480 45.1471
1484 45.5181
1488 45.6256
1492 45.6688
1496 45.7120
1500 44.9505
1504 45.2396
1508 45.4767
1512 45.9469
1516 46.0539
1520 45.6298
1524 45.6574
1528 46.1892
1532 46.7454
1536 46.9638
1540 46.8068
1544 46.5520
1548 46.7237
1552 46.8015
1556 46.6096
1560 46.7020
1564 46.6370
1568 46.5938
1572 46.5722
1576 46.7851
1580 47.1919
1584 47.0197
1588 47.0634
1592 46.9786
1596 46.8698
1600 46.8460
1604 46.8677
1608 46.9088
1612 47.0428
1616 47.2048
1620 47.6390
1624 47.3763
1628 47.3790
1632 47.5108
1636 47.6611
1640 47.7230
1644 47.7785
1648 47.6463
1652 47.7343
1656 47.9066
1660 47.8243
1664 47.4349
1668 47.3695
1672 47.4590
1676 47.4131
1680 47.5587
1684 47.5766
1688 47.7214
1692 47.5945
1696 47.2945
1700 47.4171
1704 47.4820
1708 47.2945
1712 47.4423
1716 47.6422
1720 47.6104
1724 47.7054
1728 47.6104
1732 47.7080
1736 47.9421
1740 47.9759
1744 48.0200
1748 48.1085
1752 48.1480
1756 48.1318
1760 47.9694
1764 47.9863
1768 47.8539
1772 47.9759
1776 47.9707
1780 47.9319
1784 47.7346
1788 47.6911
1792 47.8174
1796 47.9049
1800 47.9707
1804 47.7956
1808 47.9877
1812 48.1637
1816 48.0536
1820 48.0699
1824 48.1580
1828 48.2582
1832 48.1531
1836 48.1980
1840 48.2371
1844 48.3760
1848 48.2967
1852 47.9001
1856 48.0919
1860 48.0421
1864 47.8755
1868 47.1613
1872 46.5807
1876 46.0035
1880 45.1254
1884 44.2143
1888 43.2676
1892 42.0593
1896 40.6793
1900 39.6405
1904 39.0405
1908 39.4323
1912 39.0409
1916 38.8266
1920 38.8980
1924 39.0230
1928 39.3595
1932 39.3925
1936 39.9490
1940 40.2653
1944 40.4916
1948 40.7852
1952 41.1639
1956 41.2493
1960 41.6933
1964 41.9946
1968 42.2445
1972 42.6950
1976 42.9502
1980 43.1600
1984 43.3270
1988 43.5131
1992 43.5963
1996 43.9264
2000 44.3370
2004 44.3604
2008 44.4628
2012 44.6081
2016 44.5517
2020 44.2927
2024 44.0896
2028 44.3514
2032 44.3106
2036 44.2768
2040 44.3585
2044 44.4368
2048 44.5367
2052 44.6608
2056 44.3416
2060 44.3805
2064 44.6247
2068 44.7682
2072 44.6863
2076 44.5239
2079.5 44.5077
2080.3 44.4733
2081.2 44.3407
2082 44.4357
2082.8 44.4276
2083.7 44.4508
2084.5 44.4653
2085.3 44.4570
2086.2 44.4767
2087 44.5252
2087.9 44.5465
2088.7 44.5779
2089.5 44.6180
2090.4 44.6173
2091.2 44.5685
2092.1 44.5649
2092.9 44.5941
2093.8 44.5934
2094.6 44.5563
2095.5 44.5336
2096.3 44.5326
2097.1 44.5336
2098 44.5525
2098.8 44.6111
2099.7 44.6432
2100.5 44.6151
2101.4 44.5455
2102.3 44.4745
2103.1 44.4575
2104 44.4788
2104.8 44.5106
2105.7 44.5480
2106.5 44.5752
2107.4 44.6027
2108.2 44.6034
2109.1 44.5877
2110 44.5797
2110.8 44.5642
2111.7 44.5702
2112.5 44.5917
2113.4 44.6008
2114.3 44.6221
2115.1 44.6343
2116 44.6607
2116.8 44.6664
2117.7 44.6482
2118.6 44.6499
2119.4 44.6307
2120.3 44.5914
2121.2 44.5826
2122 44.5891
2122.9 44.6260
2123.8 44.6295
2124.7 44.6245
2125.5 44.6353
2126.4 44.6343
2127.3 44.6489
2128.1 44.6649
2129 44.6390
2129.9 44.6276
2130.8 44.6143
2131.6 44.5931
2132.5 44.5580
2133.4 44.5400
2134.3 44.5252
2135.2 44.4805
2136 44.4496
2136.9 44.4708
2137.8 44.4934
2138.7 44.5121
2139.6 44.5496
2140.4 44.5946
2141.3 44.5685
2142.2 44.5054
2143.1 44.4673
2144 44.4259
2144.9 44.3479
2145.8 44.2913
2146.6 44.2824
2147.5 44.2507
2148.4 44.1757
2149.3 44.1361
2150.2 44.1393
2151.1 44.1570
2152 44.1692
2152.9 44.1814
2153.8 44.2003
2154.7 44.1405
2155.6 44.0347
2156.5 43.9773
2157.4 43.9371
2158.3 43.8828
2159.2 43.8522
2160.1 43.8228
2161 43.7888
2161.9 43.7510
2162.8 43.7316
2163.7 43.7351
2164.6 43.7263
2165.5 43.7026
2166.4 43.6703
2167.3 43.6232
2168.2 43.5974
2169.1 43.6000
2170 43.6227
2170.9 43.6287
2171.8 43.6084
2172.7 43.5785
2173.6 43.5304
2174.6 43.4911
2175.5 43.4839
2176.4 43.4547
2177.3 43.4129
2178.2 43.3694
2179.1 43.3124
2180 43.2595
2181 43.2234
2181.9 43.2207
2182.8 43.2284
2183.7 43.2040
2184.6 43.1541
2185.6 43.1062
2186.5 43.0516
2187.4 42.9849
2188.3 42.9176
2189.3 42.8899
2190.2 42.8775
2191.1 42.8449
2192 42.7959
2193 42.7471
2193.9 42.6839
2194.8 42.5986
2195.7 42.5171
2196.7 42.4697
2197.6 42.4312
2198.5 42.3654
2199.5 42.2656
2200.4 42.1671
2201.3 42.0790
2202.3 41.9874
2203.2 41.8958
2204.1 41.8233
2205.1 41.7457
2206 41.6836
2207 41.6441
2207.9 41.6478
2208.8 41.6959
2209.8 41.7637
2210.7 41.8696
2211.7 42.0020
2212.6 42.1248
2213.6 42.2711
2214.5 42.4343
2215.5 42.5824
2216.4 42.6779
2217.3 42.7446
2218.3 42.8179
2219.2 42.8792
2220.2 42.9124
2221.1 42.9505
2222.1 42.9981
2223.1 43.0504
2224 43.0930
2225 43.1304
2225.9 43.1621
2226.9 43.1815
2227.8 43.1808
2228.8 43.1902
2229.7 43.2141
2230.7 43.2413
2231.7 43.2463
2232.6 43.2483
2233.6 43.2658
2234.5 43.2868
2235.5 43.3096
2236.5 43.3342
2237.4 43.3577
2238.4 43.3701
2239.4 43.3610
2240.3 43.3598
2241.3 43.3639
2242.3 43.3707
2243.3 43.3914
2244.2 43.4081
2245.2 43.4382
2246.2 43.4634
2247.1 43.4577
2248.1 43.4490
2249.1 43.4193
2250.1 43.3746
2251 43.3462
2252 43.3411
2253 43.3699
2254 43.3933
2255 43.4193
2255.9 43.4786
2256.9 43.5227
2257.9 43.5289
2258.9 43.5050
2259.9 43.4789
2260.9 43.4550
2261.8 43.4270
2262.8 43.4227
2263.8 43.4313
2264.8 43.4667
2265.8 43.4957
2266.8 43.4823
2267.8 43.4674
2268.8 43.4605
2269.8 43.4442
2270.8 43.4301
2271.8 43.4375
2272.8 43.4766
2273.8 43.4863
2274.7 43.4708
2275.7 43.4741
2276.7 43.4701
2277.7 43.4459
2278.7 43.4093
2279.8 43.3794
2280.8 43.3632
2281.8 43.3488
2282.8 43.3435
2283.8 43.3488
2284.8 43.3452
2285.8 43.3413
2286.8 43.3146
2287.8 43.2804
2288.8 43.2598
2289.8 43.2568
2290.8 43.2363
2291.8 43.1940
2292.9 43.1471
2293.9 43.1193
2294.9 43.0971
2295.9 43.0798
2296.9 43.0726
2297.9 43.0761
2299 43.0639
2300 43.0322
2301 42.9909
2302 42.9760
2303 42.9767
2304.1 42.9746
2305.1 42.9525
2306.1 42.9121
2307.1 42.8729
2308.2 42.8339
2309.2 42.7810
2310.2 42.7720
2311.3 42.8023
2312.3 42.8129
2313.3 42.7837
2314.4 42.7590
2315.4 42.7374
2316.4 42.7095
2317.5 42.6786
2318.5 42.6836
2319.5 42.7117
2320.6 42.7138
2321.6 42.6920
2322.6 42.6774
2323.7 42.6417
2324.7 42.6054
2325.8 42.5879
2326.8 42.5695
2327.9 42.5350
2328.9 42.5039
2330 42.4917
2331 42.4690
2332.1 42.4194
2333.1 42.3937
2334.2 42.3977
2335.2 42.4004
2336.3 42.3932
2337.3 42.3942
2338.4 42.3893
2339.4 42.3200
2340.5 42.2190
2341.5 42.1417
2342.6 42.0864
2343.6 42.0628
2344.7 42.0809
2345.8 42.1151
2346.8 42.1415
2347.9 42.1320
2349 42.0917
2350 42.0244
2351.1 41.9553
2352.2 41.9104
2353.2 41.8933
2354.3 41.9044
2355.4 41.9506
2356.4 42.0089
2357.5 42.0303
2358.6 42.0224
2359.7 42.0109
2360.7 42.0166
2361.8 42.0209
2362.9 42.0233
2364 42.0316
2365 42.0338
2366.1 42.0149
2367.2 41.9872
2368.3 41.9575
2369.4 41.9444
2370.4 41.9312
2371.5 41.9092
2372.6 41.8718
2373.7 41.8377
2374.8 41.8259
2375.9 41.8006
2377 41.7702
2378.1 41.7330
2379.1 41.6969
2380.2 41.6630
2381.3 41.6089
2382.4 41.5730
2383.5 41.5578
2384.6 41.5402
2385.7 41.5216
2386.8 41.4979
2387.9 41.4878
2389 41.4873
2390.1 41.4768
2391.2 41.4735
2392.3 41.4758
2393.4 41.5042
2394.5 41.5261
2395.6 41.5276
2396.7 41.5257
2397.9 41.5214
2399 41.5010
2400.1 41.4768
2401.2 41.4644
2402.3 41.4726
2403.4 41.4701
2404.5 41.4395
2405.6 41.4020
2406.8 41.3644
2407.9 41.3081
2409 41.2706
2410.1 41.2560
2411.2 41.2443
2412.4 41.2283
2413.5 41.2051
2414.6 41.1735
2415.7 41.1189
2416.9 41.0469
2418 41.0060
2419.1 40.9746
2420.2 40.9105
2421.4 40.8463
2422.5 40.8041
2423.6 40.7715
2424.8 40.7258
2425.9 40.6696
2427 40.6387
2428.2 40.6078
2429.3 40.5370
2430.5 40.4602
2431.6 40.3961
2432.7 40.3550
2433.9 40.3281
2435 40.2892
2436.2 40.2456
2437.3 40.2008
2438.5 40.1499
2439.6 40.0702
2440.8 39.9710
2441.9 39.8880
2443.1 39.8331
2444.2 39.7913
2445.4 39.7642
2446.5 39.7427
2447.7 39.7305
2448.8 39.7178
2450 39.7006
2451.1 39.6709
2452.3 39.6367
2453.5 39.6096
2454.6 39.5785
2455.8 39.5142
2456.9 39.4364
2458.1 39.3805
2459.3 39.3449
2460.4 39.3150
2461.6 39.2988
2462.8 39.2926
2464 39.2689
2465.1 39.2190
2466.3 39.1541
2467.5 39.1002
2468.6 39.0663
2469.8 39.0319
2471 39.0032
2472.2 38.9848
2473.4 38.9678
2474.5 38.9322
2475.7 38.8838
2476.9 38.8278
2478.1 38.7742
2479.3 38.7057
2480.5 38.6369
2481.6 38.5957
2482.8 38.5821
2484 38.5741
2485.2 38.5691
2486.4 38.5481
2487.6 38.5177
2488.8 38.4749
2490 38.4131
2491.2 38.3653
2492.4 38.3460
2493.6 38.3428
2494.8 38.3490
2496 38.3413
2497.2 38.3148
2498.4 38.2870
2499.6 38.2615
2500.8 38.2327
2502 38.2069
2503.2 38.1870
2504.4 38.1718
2505.6 38.1521
2506.8 38.1308
2508.1 38.1198
2509.3 38.1187
2510.5 38.1172
2511.7 38.1179
2512.9 38.1148
2514.1 38.1107
2515.4 38.1055
2516.6 38.0888
2517.8 38.0607
2519 38.0131
2520.2 37.9624
2521.5 37.9243
2522.7 37.9011
2523.9 37.8954
2525.2 37.8892
2526.4 37.8767
2527.6 37.8852
2528.9 37.8964
2530.1 37.8935
2531.3 37.8839
2532.6 37.8792
2533.8 37.8590
2535 37.8272
2536.3 37.7930
2537.5 37.7659
2538.8 37.7270
2540 37.6806
2541.3 37.6365
2542.5 37.6021
2543.7 37.5784
2545 37.5744
2546.2 37.5879
2547.5 37.6162
2548.7 37.6389
2550 37.6457
2551.3 37.6461
2552.5 37.6339
2553.8 37.6145
2555 37.5854
2556.3 37.5485
2557.5 37.4970
2558.8 37.4188
2560.1 37.3050
2561.3 37.1941
2562.6 37.1241
2563.9 37.1032
2565.1 37.1049
2566.4 37.1099
2567.7 37.1109
2569 37.0924
2570.2 37.0379
2571.5 36.9666
2572.8 36.9267
2574.1 36.9212
2575.3 36.9221
2576.6 36.9290
2577.9 36.9451
2579.2 36.9224
2580.5 36.8506
2581.7 36.7632
2583 36.6905
2584.3 36.6530
2585.6 36.6354
2586.9 36.6286
2588.2 36.6154
2589.5 36.5297
2590.8 36.3617
2592.1 36.1675
2593.4 36.0218
2594.7 35.9787
2596 36.0253
2597.3 36.1531
2598.6 36.2989
2599.9 36.3769
2601.2 36.3390
2602.5 36.2110
2603.8 36.0758
2605.1 35.9868
2606.4 35.9584
2607.7 35.9893
2609 36.0371
2610.3 36.0746
2611.7 36.0522
2613 35.9522
2614.3 35.8258
2615.6 35.7005
2616.9 35.5961
2618.3 35.5330
2619.6 35.5287
2620.9 35.5646
2622.2 35.5779
2623.6 35.5482
2624.9 35.4689
2626.2 35.3172
2627.5 35.1348
2628.9 34.9817
2630.2 34.8833
2631.5 34.8472
2632.9 34.8463
2634.2 34.8673
2635.6 34.8760
2636.9 34.8482
2638.2 34.7946
2639.6 34.7061
2640.9 34.5723
2642.3 34.4168
2643.6 34.2400
2645 34.0603
2646.3 33.8838
2647.7 33.7065
2649 33.5318
2650.4 33.3531
2651.7 33.1619
2653.1 32.9595
2654.5 32.7461
2655.8 32.5423
2657.2 32.3290
2658.5 32.0907
2659.9 31.7996
2661.3 31.4438
2662.6 31.0235
2664 30.5787
2665.4 30.1196
2666.7 29.6722
2668.1 29.2704
2669.5 28.9161
2670.9 28.5594
2672.2 28.1674
2673.6 27.7337
2675 27.2612
2676.4 26.7064
2677.8 26.0761
2679.1 25.4017
2680.5 24.6712
2681.9 23.8463
2683.3 22.8980
2684.7 21.8024
2686.1 20.5480
2687.5 19.1319
2688.9 17.5964
2690.3 16.0091
2691.7 14.4568
2693.1 13.0035
2694.5 11.6930
2695.9 10.5344
2697.3 9.5367
2698.7 8.7020
2700.1 8.0229
2701.5 7.4951
2702.9 7.1339
2704.3 6.9377
2705.7 6.8852
2707.1 6.9363
2708.5 7.0379
2710 7.1648
2711.4 7.2743
2712.8 7.3229
2714.2 7.2964
2715.6 7.1925
2717.1 7.0205
2718.5 6.8132
2719.9 6.5824
2721.3 6.3342
2722.8 6.1022
2724.2 5.8967
2725.6 5.7263
2727.1 5.5852
2728.5 5.4526
2729.9 5.3323
2731.4 5.2049
2732.8 5.0521
2734.3 4.8985
2735.7 4.7506
2737.1 4.6269
2738.6 4.5310
2740 4.4540
2741.5 4.3992
2742.9 4.3630
2744.4 4.3279
2745.8 4.2781
2747.3 4.2032
2748.8 4.1041
2750.2 3.9934
2751.7 3.8860
2753.1 3.7826
2754.6 3.6943
2756.1 3.6173
2757.5 3.5520
2759 3.5115
2760.5 3.5115
2761.9 3.5699
2763.4 3.6604
2764.9 3.7587
2766.4 3.8812
2767.8 4.0013
2769.3 4.0991
2770.8 4.1821
2772.3 4.2526
2773.8 4.3204
2775.2 4.3723
2776.7 4.4047
2778.2 4.4475
2779.7 4.5004
2781.2 4.5582
2782.7 4.6147
2784.2 4.6594
2785.7 4.7052
2787.2 4.7528
2788.7 4.8059
2790.2 4.8702
2791.7 4.9444
2793.2 5.0242
2794.7 5.0932
2796.2 5.1391
2797.7 5.1504
2799.2 5.1387
2800.7 5.1396
2802.2 5.1523
2803.8 5.1715
2805.3 5.2059
2806.8 5.2497
2808.3 5.2899
2809.8 5.3160
2811.4 5.3325
2812.9 5.3509
2814.4 5.3622
2815.9 5.3646
2817.5 5.3708
2819 5.3689
2820.5 5.3646
2822.1 5.3667
2823.6 5.3741
2825.2 5.3821
2826.7 5.3854
2828.2 5.3904
2829.8 5.4088
2831.3 5.4234
2832.9 5.4220
2834.4 5.4050
2836 5.3938
2837.5 5.3830
2839.1 5.3732
2840.6 5.3729
2842.2 5.3906
2843.7 5.4073
2845.3 5.4031
2846.9 5.3906
2848.4 5.3821
2850 5.3662
2851.6 5.3462
2853.1 5.3238
2854.7 5.3163
2856.3 5.3021
2857.9 5.2796
2859.4 5.2746
2861 5.2729
2862.6 5.2612
2864.2 5.2406
2865.8 5.2112
2867.3 5.1885
2868.9 5.1662
2870.5 5.1605
2872.1 5.1750
2873.7 5.1825
2875.3 5.1717
2876.9 5.1603
2878.5 5.1421
2880.1 5.1131
2881.7 5.0923
2883.3 5.0978
2884.9 5.0980
2886.5 5.0843
2888.1 5.0641
2889.7 5.0484
2891.3 5.0289
2892.9 5.0123
2894.6 5.0030
2896.2 5.0026
2897.8 4.9956
2899.4 4.9853
2901 4.9712
2902.7 4.9514
2904.3 4.9288
2905.9 4.9148
2907.5 4.9040
2909.2 4.8951
2910.8 4.8954
2912.4 4.9090
2914.1 4.9243
2915.7 4.9370
2917.4 4.9377
2919 4.9265
2920.7 4.9109
2922.3 4.8906
2923.9 4.8712
2925.6 4.8622
2927.2 4.8605
2928.9 4.8739
2930.6 4.8872
2932.2 4.9009
2933.9 4.9116
2935.5 4.9210
2937.2 4.9208
2938.9 4.9109
2940.5 4.8976
2942.2 4.8956
2943.9 4.8927
2945.5 4.8901
2947.2 4.8985
2948.9 4.9208
2950.6 4.9286
2952.3 4.9205
2953.9 4.9106
2955.6 4.9028
2957.3 4.8989
2959 4.9054
2960.7 4.9265
2962.4 4.9574
2964.1 4.9856
2965.8 5.0115
2967.5 5.0347
2969.2 5.0439
2970.9 5.0476
2972.6 5.0533
2974.3 5.0621
2976 5.0801
2977.7 5.1100
2979.4 5.1423
2981.1 5.1576
2982.8 5.1645
2984.5 5.1691
2986.3 5.1717
2988 5.1820
2989.7 5.1990
2991.4 5.2171
2993.2 5.2399
2994.9 5.2569
2996.6 5.2767
2998.4 5.3046
3000.1 5.3273
3001.8 5.3432
3003.6 5.3577
3005.3 5.3734
3007 5.3961
3008.8 5.4239
3010.5 5.4524
3012.3 5.4828
3014 5.5062
3015.8 5.5184
3017.6 5.5287
3019.3 5.5426
3021.1 5.5615
3022.8 5.5810
3024.6 5.5974
3026.4 5.6041
3028.1 5.6081
3029.9 5.6081
3031.7 5.6131
3033.4 5.6313
3035.2 5.6545
3037 5.6772
3038.8 5.6964
3040.6 5.7093
3042.3 5.7173
3044.1 5.7240
3045.9 5.7462
3047.7 5.7818
3049.5 5.8141
3051.3 5.8380
3053.1 5.8504
3054.9 5.8572
3056.7 5.8701
3058.5 5.8962
3060.3 5.9242
3062.1 5.9454
3063.9 5.9680
3065.7 5.9835
3067.5 5.9972
3069.4 6.0232
3071.2 6.0593
3073 6.0950
3074.8 6.1168
3076.6 6.1290
3078.5 6.1462
3080.3 6.1667
3082.1 6.1988
3084 6.2362
3085.8 6.2706
3087.6 6.3003
3089.5 6.3221
3091.3 6.3409
3093.2 6.3589
3095 6.3843
3096.9 6.4288
3098.7 6.4822
3100.6 6.5393
3102.4 6.5913
3104.3 6.6275
3106.1 6.6604
3108 6.6893
3109.9 6.7180
3111.7 6.7525
3113.6 6.7950
3115.5 6.8501
3117.4 6.9037
3119.2 6.9477
3121.1 6.9939
3123 7.0477
3124.9 7.0992
3126.8 7.1479
3128.6 7.2027
3130.5 7.2547
3132.4 7.2975
3134.3 7.3346
3136.2 7.3736
3138.1 7.4253
3140 7.4794
3141.9 7.5416
3143.8 7.6062
3145.7 7.6633
3147.6 7.7221
3149.5 7.7879
3151.5 7.8572
3153.4 7.9237
3155.3 7.9775
3157.2 8.0284
3159.1 8.0760
3161.1 8.1256
3163 8.1806
3164.9 8.2522
3166.9 8.3323
3168.8 8.4167
3170.7 8.4967
3172.7 8.5702
3174.6 8.6263
3176.6 8.6766
3178.5 8.7237
3180.5 8.7696
3182.4 8.8207
3184.4 8.8850
3186.3 8.9472
3188.3 9.0154
3190.2 9.0901
3192.2 9.1623
3194.2 9.2237
3196.1 9.2862
3198.1 9.3611
3200.1 9.4350
3202.1 9.4948
3204 9.5599
3206 9.6310
3208 9.6900
3210 9.7425
3212 9.8028
3214 9.8679
3216 9.9284
3218 9.9858
3220 10.0523
3222 10.1306
3224 10.2088
3226 10.2806
3228 10.3504
3230 10.4120
3232 10.4701
3234 10.5270
3236.1 10.5904
3238.1 10.6667
3240.1 10.7383
3242.1 10.8038
3244.2 10.8675
3246.2 10.9271
3248.2 10.9869
3250.3 11.0467
3252.3 11.1139
3254.3 11.1933
3256.4 11.2754
3258.4 11.3575
3260.5 11.4338
3262.5 11.5079
3264.6 11.5814
3266.6 11.6515
3268.7 11.7180
3270.8 11.7910
3272.8 11.8767
3274.9 11.9582
3277 12.0407
3279 12.1294
3281.1 12.2136
3283.2 12.2934
3285.3 12.3741
3287.4 12.4552
3289.4 12.5437
3291.5 12.6294
3293.6 12.7179
3295.7 12.8033
3297.8 12.8784
3299.9 12.9598
3302 13.0495
3304.1 13.1323
3306.2 13.2125
3308.3 13.2948
3310.4 13.3740
3312.6 13.4347
3314.7 13.4929
3316.8 13.5615
3318.9 13.6320
3321 13.6998
3323.2 13.7653
3325.3 13.8294
3327.4 13.8890
3329.6 13.9423
3331.7 14.0011
3333.9 14.0620
3336 14.1187
3338.2 14.1723
3340.3 14.2166
3342.5 14.2494
3344.6 14.2807
3346.8 14.3176
3348.9 14.3525
3351.1 14.3781
3353.3 14.4013
3355.4 14.4130
3357.6 14.4096
3359.8 14.3999
3362 14.3914
3364.1 14.3869
3366.3 14.3906
3368.5 14.3974
3370.7 14.4021
3372.9 14.4004
3375.1 14.4056
3377.3 14.4168
3379.5 14.4370
3381.7 14.4724
3383.9 14.5217
3386.1 14.5738
3388.3 14.6078
3390.6 14.6185
3392.8 14.6239
3395 14.6169
3397.2 14.5960
3399.4 14.5651
3401.7 14.5284
3403.9 14.4886
3406.1 14.4439
3408.4 14.3953
3410.6 14.3650
3412.9 14.3650
3415.1 14.3939
3417.4 14.4517
3419.6 14.5357
3421.9 14.6528
3424.1 14.8054
3426.4 14.9880
3428.7 15.1964
3430.9 15.4115
3433.2 15.6101
3435.5 15.7861
3437.8 15.9368
3440 16.0756
3442.3 16.2137
3444.6 16.3527
3446.9 16.4941
3449.2 16.6217
3451.5 16.7398
3453.8 16.8518
3456.1 16.9559
3458.4 17.0614
3460.7 17.1657
3463 17.2550
3465.3 17.3415
3467.7 17.4262
3470 17.5109
3472.3 17.5844
3474.6 17.6543
3477 17.7370
3479.3 17.8193
3481.6 17.9007
3484 17.9823
3486.3 18.0557
3488.7 18.1129
3491 18.1464
3493.4 18.1545
3495.7 18.1447
3498.1 18.1232
3500.4 18.1124
3502.8 18.1350
3505.2 18.2191
3507.5 18.3804
3509.9 18.6192
3512.3 18.9099
3514.7 19.2176
3517.1 19.5068
3519.5 19.7645
3521.8 19.9970
3524.2 20.2038
3526.6 20.3887
3529 20.5627
3531.4 20.7304
3533.8 20.8802
3536.3 21.0111
3538.7 21.1390
3541.1 21.2718
3543.5 21.3950
3545.9 21.5098
3548.4 21.6279
3550.8 21.7431
3553.2 21.8539
3555.7 21.9686
3558.1 22.0836
3560.5 22.1967
3563 22.2980
3565.4 22.4003
3567.9 22.5097
3570.4 22.6124
3572.8 22.7181
3575.3 22.8270
3577.7 22.9294
3580.2 23.0241
3582.7 23.1059
3585.2 23.1913
3587.6 23.2851
3590.1 23.3808
3592.6 23.4814
3595.1 23.5826
3597.6 23.6795
3600.1 23.7703
3602.6 23.8470
3605.1 23.9228
3607.6 24.0031
3610.1 24.0903
3612.7 24.1800
3615.2 24.2712
3617.7 24.3597
3620.2 24.4437
3622.7 24.5240
3625.3 24.6025
3627.8 24.6793
3630.4 24.7602
3632.9 24.8372
3635.5 24.9150
3638 24.9980
3640.6 25.0829
3643.1 25.1633
3645.7 25.2350
3648.2 25.3060
3650.8 25.3798
3653.4 25.4468
3656 25.5148
3658.5 25.5882
3661.1 25.6662
3663.7 25.7419
3666.3 25.8097
3668.9 25.8775
3671.5 25.9481
3674.1 26.0093
3676.7 26.0674
3679.3 26.1244
3681.9 26.1915
3684.5 26.2675
3687.2 26.3355
3689.8 26.4039
3692.4 26.4744
3695 26.5333
3697.7 26.5943
3700.3 26.6591
3703 26.7283
3705.6 26.7986
3708.3 26.8625
3710.9 26.9332
3713.6 27.0025
3716.2 27.0551
3718.9 27.1080
3721.6 27.1635
3724.2 27.2226
3726.9 27.2896
3729.6 27.3581
3732.3 27.4284
3735 27.4994
3737.7 27.5630
3740.4 27.6255
3743.1 27.6904
3745.8 27.7643
3748.5 27.8454
3751.2 27.9236
3753.9 27.9985
3756.6 28.0739
3759.4 28.1536
3762.1 28.2337
3764.8 28.3100
3767.6 28.3844
3770.3 28.4498
3773 28.5103
3775.8 28.5806
3778.5 28.6564
3781.3 28.7328
3784.1 28.8067
3786.8 28.8842
3789.6 28.9646
3792.4 29.0331
3795.1 29.1005
3797.9 29.1735
3800.7 29.2420
3803.5 29.3016
3806.3 29.3499
3809.1 29.3936
3811.9 29.4384
3814.7 29.4850
3817.5 29.5403
3820.3 29.6011
3823.1 29.6635
3825.9 29.7255
3828.8 29.7729
3831.6 29.8088
3834.4 29.8470
3837.3 29.8898
3840.1 29.9401
3843 29.9977
3845.8 30.0506
3848.7 30.1006
3851.5 30.1514
3854.4 30.2006
3857.3 30.2439
3860.1 30.2811
3863 30.3193
3865.9 30.3636
3868.8 30.4076
3871.7 30.4543
3874.6 30.5126
3877.5 30.5696
3880.4 30.6203
3883.3 30.6662
3886.2 30.7093
3889.1 30.7538
3892 30.8017
3894.9 30.8495
3897.9 30.8971
3900.8 30.9378
3903.7 30.9787
3906.7 31.0168
3909.6 31.0474
3912.6 31.0766
3915.5 31.1130
3918.5 31.1488
3921.4 31.1792
3924.4 31.1995
3927.4 31.2105
3930.4 31.2137
3933.3 31.2187
3936.3 31.2344
3939.3 31.2620
3942.3 31.2974
3945.3 31.3321
3948.3 31.3527
3951.3 31.3615
3954.4 31.3670
3957.4 31.3697
3960.4 31.3672
3963.4 31.3735
3966.5 31.3902
3969.5 31.4065
3972.5 31.4168
3975.6 31.4312
3978.6 31.4429
3981.7 31.4395
3984.7 31.4352
3987.8 31.4362
3990.9 31.4405
3994 31.4462
3997 31.4500
4000.1 31.4591
4003.2 31.4694
4006.3 31.4853
4009.4 31.5135
4012.5 31.5350
4015.6 31.5531
4018.7 31.5646
4021.8 31.5726
4025 31.5790
4028.1 31.5900
4031.2 31.6142
4034.4 31.6455
4037.5 31.6690
4040.6 31.6905
4043.8 31.7049
4047 31.7137
4050.1 31.7173
4053.3 31.7121
4056.5 31.7054
4059.6 31.7029
4062.8 31.6957
4066 31.6890
4069.2 31.6838
4072.4 31.6850
4075.6 31.6812
4078.8 31.6651
4082 31.6503
4085.2 31.6401
4088.4 31.6230
4091.7 31.6034
4094.9 31.5873
4098.1 31.5754
4101.4 31.5558
4104.6 31.5340
4107.9 31.5180
4111.1 31.4958
4114.4 31.4668
4117.7 31.4355
4120.9 31.3991
4124.2 31.3647
4127.5 31.3381
4130.8 31.3134
4134.1 31.2924
4137.4 31.2765
4140.7 31.2591
4144 31.2331
4147.3 31.2067
4150.6 31.1878
4154 31.1663
4157.3 31.1287
4160.6 31.0871
4164 31.0555
4167.3 31.0235
4170.7 30.9892
4174 30.9620
4177.4 30.9347
4180.8 30.8971
4184.1 30.8455
4187.5 30.7952
4190.9 30.7524
4194.3 30.7107
4197.7 30.6791
4201.1 30.6542
4204.5 30.6260
4207.9 30.5921
4211.3 30.5452
4214.8 30.4897
4218.2 30.4201
4221.6 30.3406
4225.1 30.2671
4228.5 30.2040
4232 30.1535
4235.4 30.1233
4238.9 30.1095
4242.4 30.1011
4245.8 30.0920
4249.3 30.0705
4252.8 30.0207
4256.3 29.9384
4259.8 29.8387
4263.3 29.7345
4266.8 29.6321
4270.3 29.5419
4273.8 29.4881
4277.4 29.4638
4280.9 29.4544
4284.4 29.4554
4288 29.4601
4291.5 29.4584
4295.1 29.4522
4298.6 29.4469
4302.2 29.4451
4305.8 29.4424
4309.4 29.4434
4312.9 29.4441
4316.5 29.4319
4320.1 29.4073
4323.7 29.3764
4327.3 29.3383
4331 29.2804
4334.6 29.2077
4338.2 29.1346
4341.8 29.0536
4345.5 28.9682
4349.1 28.8824
4352.8 28.7867
4356.4 28.6868
4360.1 28.5771
4363.8 28.4555
4367.4 28.3339
4371.1 28.2085
4374.8 28.0761
4378.5 27.9399
4382.2 27.8035
4385.9 27.6717
4389.6 27.5339
4393.4 27.3903
4397.1 27.2515
4400.8 27.1191
4404.5 26.9958
4408.3 26.8804
4412 26.7757
4415.8 26.6768
4419.6 26.5718
4423.3 26.4596
4427.1 26.3525
4430.9 26.2524
4434.7 26.1569
4438.5 26.0604
4442.3 25.9612
4446.1 25.8563
4449.9 25.7361
4453.7 25.6078
4457.6 25.4899
4461.4 25.3845
4465.2 25.2945
4469.1 25.2360
4473 25.2090
4476.8 25.2031
4480.7 25.2088
4484.6 25.2258
4488.4 25.2509
4492.3 25.2794
4496.2 25.3188
4500.1 25.3820
4504 25.4732
4508 25.5854
4511.9 25.7076
4515.8 25.8332
4519.7 25.9473
4523.7 26.0425
4527.6 26.1185
4531.6 26.1793
4535.6 26.2280
4539.5 26.2610
4543.5 26.2818
4547.5 26.2931
4551.5 26.2859
4555.5 26.2653
4559.5 26.2359
4563.5 26.2000
4567.5 26.1558
4571.6 26.1058
4575.6 26.0539
4579.6 25.9921
4583.7 25.9153
4587.7 25.8381
4591.8 25.7651
4595.9 25.6916
4600 25.6115
4604 25.5248
4608.1 25.4366
4612.2 25.3437
4616.3 25.2399
4620.5 25.1308
4624.6 25.0167
4628.7 24.8948
4632.8 24.7669
4637 24.6312
4641.1 24.4996
4645.3 24.3742
4649.5 24.2433
4653.6 24.1010
4657.8 23.9479
4662 23.7897
4666.2 23.6345
4670.4 23.4857
4674.6 23.3643
4678.8 23.2845
4683.1 23.2497
4687.3 23.2646
4691.5 23.3177
4695.8 23.3902
4700 23.4644
4704.3 23.5235
4708.6 23.5637
4712.9 23.5842
4717.2 23.5866
4721.5 23.5784
4725.8 23.5607
4730.1 23.5285
4734.4 23.4854
4738.7 23.4363
4743.1 23.3837
4747.4 23.3259
4751.7 23.2589
4756.1 23.1828
4760.5 23.1009
4764.8 23.0143
4769.2 22.9261
4773.6 22.8437
4778 22.7681
4782.4 22.6932
4786.8 22.6159
4791.3 22.5371
4795.7 22.4547
4800.1 22.3684
4804.6 22.2747
4809 22.1793
4813.5 22.0793
4818 21.9671
4822.5 21.8458
4827 21.7166
4831.5 21.5776
4836 21.4228
4840.5 21.2568
4845 21.0801
4849.5 20.8845
4854.1 20.6686
4858.6 20.4361
4863.2 20.1806
4867.8 19.8953
4872.3 19.5781
4876.9 19.2271
4881.5 18.8356
4886.1 18.3942
4890.7 17.9030
4895.3 17.3734
4900 16.8226
4904.6 16.2728
4909.2 15.7555
4913.9 15.2935
4918.6 14.9021
4923.2 14.5820
4927.9 14.3245
4932.6 14.1142
4937.3 13.9326
4942 13.7623
4946.7 13.5799
4951.4 13.3665
4956.2 13.1139
4960.9 12.8225
4965.7 12.5035
4970.4 12.1758
4975.2 11.8642
4980 11.5934
4984.8 11.3673
4989.6 11.1833
4994.4 11.0390
4999.2 10.9269
5004 10.8407
5008.8 10.7816
5013.7 10.7452
5018.5 10.7246
5023.4 10.7143
5028.3 10.7071
5033.2 10.6959
5038 10.6825
5043 10.6727
5047.9 10.6679
5052.8 10.6639
5057.7 10.6600
5062.7 10.6653
5067.6 10.6874
5072.6 10.7275
5077.5 10.7914
5082.5 10.8792
5087.5 10.9740
5092.5 11.0595
5097.5 11.1283
5102.5 11.1751
5107.5 11.1969
5112.6 11.1916
5117.6 11.1651
5122.7 11.1297
5127.7 11.0904
5132.8 11.0538
5137.9 11.0306
5143 11.0221
5148.1 11.0199
5153.2 11.0168
5158.4 11.0111
5163.5 11.0053
5168.6 10.9937
5173.8 10.9749
5179 10.9546
5184.2 10.9247
5189.3 10.8811
5194.5 10.8120
5199.8 10.7024
5205 10.5466
5210.2 10.3447
5215.4 10.0999
5220.7 9.8169
5226 9.5033
5231.2 9.1761
5236.5 8.8429
5241.8 8.5119
5247.1 8.1966
5252.4 7.9093
5257.8 7.6498
5263.1 7.4103
5268.4 7.1944
5273.8 7.0023
5279.2 6.8247
5284.6 6.6647
5290 6.5240
5295.4 6.4037
5300.8 6.3030
5306.2 6.2190
5311.6 6.1527
5317.1 6.0964
5322.5 6.0403
5328 5.9862
5333.5 5.9371
5339 5.8945
5344.5 5.8668
5350 5.8675
5355.5 5.8998
5361.1 5.9639
5366.6 6.0642
5372.2 6.2025
5377.8 6.3790
5383.3 6.5941
5388.9 6.8436
5394.5 7.1234
5400.2 7.4155
5405.8 7.6999
5411.4 7.9608
5417.1 8.1926
5422.8 8.3926
5428.4 8.5635
5434.1 8.6996
5439.8 8.7977
5445.5 8.8493
5451.3 8.8481
5457 8.8065
5462.8 8.7364
5468.5 8.6433
5474.3 8.5333
5480.1 8.4122
5485.9 8.2859
5491.7 8.1531
5497.5 8.0127
5503.3 7.8708
5509.2 7.7263
5515.1 7.5798
5520.9 7.4288
5526.8 7.2735
5532.7 7.1232
5538.6 6.9819
5544.5 6.8518
5550.5 6.7341
5556.4 6.6288
5562.4 6.5415
5568.4 6.4720
5574.4 6.4176
5580.4 6.3802
5586.4 6.3598
5592.4 6.3598
5598.4 6.3721
5604.5 6.3893
5610.6 6.4101
5616.6 6.4386
5622.7 6.4778
5628.8 6.5370
5634.9 6.6238
5641.1 6.7399
5647.2 6.8782
5653.4 7.0288
5659.6 7.1767
5665.7 7.3114
5671.9 7.4227
5678.2 7.5038
5684.4 7.5504
5690.6 7.5538
5696.9 7.5182
5703.1 7.4566
5709.4 7.3752
5715.7 7.2875
5722 7.1999
5728.3 7.1118
5734.7 7.0200
5741 6.9138
5747.4 6.7950
5753.8 6.6745
5760.2 6.5537
5766.6 6.4433
5773 6.3476
5779.4 6.2624
5785.9 6.1756
5792.3 6.0769
5798.8 5.9646
5805.3 5.8419
5811.8 5.7076
5818.4 5.5720
5824.9 5.4462
5831.4 5.3303
5838 5.2169
5844.6 5.1005
5851.2 4.9764
5857.8 4.8368
5864.4 4.6774
5871.1 4.5095
5877.7 4.3441
5884.4 4.1846
5891.1 4.0360
5897.8 3.9047
5904.5 3.7858
5911.2 3.6699
5918 3.5546
5924.7 3.4426
5931.5 3.3387
5938.3 3.2532
5945.1 3.1882
5952 3.1457
5958.8 3.1184
5965.7 3.0972
5972.5 3.0818
5979.4 3.0680
5986.3 3.0483
5993.2 3.0261
6000.2 3.0019
6007.1 2.9746
6014.1 2.9387
6021.1 2.8933
6028.1 2.8450
6035.1 2.7992
6042.1 2.7543
6049.2 2.7167
6056.3 2.6904
6063.3 2.6753
6070.4 2.6605
6077.6 2.6428
6084.7 2.6197
6091.8 2.5878
6099 2.5531
6106.2 2.5193
6113.4 2.4844
6120.6 2.4512
6127.8 2.4160
6135.1 2.3841
6142.4 2.3628
6149.6 2.3463
6157 2.3331
6164.3 2.3198
6171.6 2.3099
6179 2.3097
6186.3 2.3112
6193.7 2.3196
6201.1 2.3445
6208.6 2.3859
6216 2.4275
6223.5 2.4669
6231 2.5143
6238.5 2.5679
6246 2.6197
6253.5 2.6755
6261.1 2.7396
6268.6 2.8098
6276.2 2.8811
6283.8 2.9589
6291.4 3.0397
6299.1 3.1179
6306.8 3.1934
6314.4 3.2670
6322.1 3.3325
6329.9 3.3931
6337.6 3.4579
6345.4 3.5259
6353.1 3.5957
6360.9 3.6716
6368.7 3.7443
6376.6 3.8065
6384.4 3.8459
6392.3 3.8678
6400.2 3.8790
6408.1 3.8848
6416 3.8979
6424 3.9189
6432 3.9379
6439.9 3.9468
6448 3.9366
6456 3.9056
6464 3.8546
6472.1 3.7888
6480.2 3.7156
6488.3 3.6393
6496.4 3.5618
6504.6 3.4875
6512.8 3.4232
6520.9 3.3679
6529.2 3.3122
6537.4 3.2632
6545.6 3.2237
6553.9 3.1964
6562.2 3.1827
6570.5 3.1869
6578.9 3.2062
6587.2 3.2325
6595.6 3.2577
6604 3.2806
6612.4 3.2981
6620.9 3.3108
6629.4 3.3240
6637.8 3.3457
6646.4 3.3646
6654.9 3.3766
6663.4 3.3799
6672 3.3699
6680.6 3.3505
6689.2 3.3318
6697.9 3.3218
6706.5 3.3187
6715.2 3.3113
6723.9 3.3024
6732.7 3.2916
6741.4 3.2746
6750.2 3.2527
6759 3.2350
6767.8 3.2161
6776.7 3.1882
6785.5 3.1565
6794.4 3.1249
6803.4 3.0935
6812.3 3.0615
6821.3 3.0277
6830.2 2.9918
6839.3 2.9543
6848.3 2.9182
6857.3 2.8896
6866.4 2.8684
6875.5 2.8540
6884.7 2.8478
6893.8 2.8423
6903 2.8332
6912.2 2.8208
6921.4 2.7981
6930.7 2.7615
6940 2.7194
6949.3 2.6792
6958.6 2.6392
6967.9 2.5990
6977.3 2.5648
6986.7 2.5349
6996.2 2.5033
7005.6 2.4691
7015.1 2.4447
7024.6 2.4217
7034.1 2.3923
7043.7 2.3679
7053.3 2.3533
7062.9 2.3396
7072.5 2.3303
7082.2 2.3258
7091.9 2.3209
7101.6 2.2997
7111.3 2.2707
7121.1 2.2454
7130.9 2.2197
7140.7 2.1853
7150.6 2.1504
7160.4 2.1224
7170.3 2.1023
7180.3 2.0856
7190.2 2.0697
7200.2 2.0497
7210.2 2.0276
7220.3 2.0011
7230.3 1.9674
7240.4 1.9346
7250.6 1.9097
7260.7 1.8843
7270.9 1.8551
7281.1 1.8267
7291.4 1.8065
7301.6 1.7946
7311.9 1.7870
7322.3 1.7823
7332.6 1.7783
7343 1.7649
7353.4 1.7444
7363.9 1.7252
7374.3 1.7097
7384.8 1.6970
7395.4 1.6920
7405.9 1.6903
7416.5 1.6903
7427.2 1.6836
7437.8 1.6741
7448.5 1.6630
7459.2 1.6455
7470 1.6288
7480.7 1.6213
7491.6 1.6166
7502.4 1.6200
7513.3 1.6280
7524.2 1.6362
7535.1 1.6379
7546.1 1.6324
7557.1 1.6276
7568.1 1.6255
7579.2 1.6226
7590.3 1.6240
7601.4 1.6315
7612.6 1.6407
7623.8 1.6508
7635 1.6644
7646.2 1.6803
7657.5 1.7003
7668.9 1.7240
7680.2 1.7439
7691.6 1.7592
7703.1 1.7788
7714.5 1.7997
7726 1.8199
7737.5 1.8441
7749.1 1.8712
7760.7 1.8965
7772.3 1.9233
7784 1.9492
7795.7 1.9864
7807.5 2.0286
7819.2 2.0712
7831 2.1210
7842.9 2.1770
7854.8 2.2423
7866.7 2.3301
7878.6 2.4305
7890.6 2.5442
7902.7 2.6653
7914.7 2.7916
7926.8 2.9315
7939 3.0825
7951.2 3.2350
7963.4 3.3935
7975.6 3.5548
7987.9 3.7156
8000.2 3.8745
8012.6 4.0448
8025 4.2350
8037.4 4.4388
8049.9 4.6578
8062.4 4.8996
8075 5.1621
8087.6 5.4421
8100.2 5.7373
8112.9 6.0495
8125.6 6.3663
8138.4 6.6688
8151.2 6.9465
8164 7.1900
8176.9 7.3909
8189.8 7.5484
8202.8 7.6683
8215.8 7.7677
8228.8 7.8514
8241.9 7.9155
8255 7.9571
8268.2 7.9768
8281.4 7.9780
8294.6 7.9701
8307.9 7.9629
8321.3 7.9614
8334.7 7.9660
8348.1 7.9801
8361.5 7.9866
8375 7.9681
8388.6 7.9359
8402.2 7.9016
8415.8 7.8753
8429.5 7.8504
8443.2 7.8323
8457 7.8335
8470.8 7.8356
8484.7 7.8320
8498.6 7.8203
8512.6 7.7954
8526.6 7.7569
8540.6 7.6944
8554.7 7.5895
8568.8 7.4275
8583 7.2042
8597.3 6.9659
8611.6 6.7862
8625.9 6.7250
8640.3 6.8006
8654.7 6.9953
8669.2 7.2441
8683.7 7.4796
8698.2 7.6533
8712.9 7.7638
8727.5 7.8469
8742.2 7.9252
8757 7.9970
8771.8 8.0586
8786.7 8.1002
8801.6 8.1356
8816.6 8.1588
8831.6 8.1705
8846.7 8.1764
8861.8 8.1787
8877 8.1775
8892.2 8.1632
8907.5 8.1323
8922.8 8.0882
8938.2 8.0306
8953.6 7.9651
8969.1 7.9081
8984.7 7.8846
9000.3 7.9050
9015.9 7.9641
9031.6 8.0511
9047.4 8.1395
9063.2 8.2158
9079.1 8.2811
9095 8.3496
9111 8.4297
9127 8.5113
9143.1 8.6036
9159.3 8.6976
9175.5 8.7806
9191.8 8.8460
9208.1 8.9101
9224.5 8.9836
9240.9 9.0599
9257.4 9.1250
9274 9.1750
9290.6 9.1876
9307.3 9.1551
9324 9.0649
9340.8 8.9254
9357.7 8.7414
9374.6 8.5338
9391.6 8.3230
9408.6 8.1256
9425.7 7.9483
9442.9 7.8033
9460.1 7.6835
9477.4 7.5851
9494.8 7.5025
9512.2 7.4337
9529.7 7.3650
9547.2 7.2942
9564.9 7.2137
9582.5 7.1327
9600.3 7.0447
9618.1 6.9562
9636 6.8635
9653.9 6.7578
9671.9 6.6362
9690 6.5022
9708.2 6.3534
9726.4 6.2132
9744.7 6.0814
9763 5.9656
9781.4 5.8694
9799.9 5.7923
9818.5 5.7170
9837.1 5.6560
9855.8 5.6161
9874.6 5.5895
9893.4 5.5653
9912.3 5.5399
9931.3 5.5095
9950.4 5.4526
9969.5 5.3605
9988.7 5.2583
10008 5.1559
10027.4 5.0497
10046.8 4.9430
10066.3 4.8440
10085.9 4.7483
10105.6 4.6547
10125.3 4.5738
10145.1 4.4956
10165 4.4111
10185 4.3254
10205 4.2422
10225.1 4.1626
10245.4 4.0819
10265.6 4.0034
10286 3.9343
10306.5 3.8735
10327 3.8127
10347.6 3.7694
10368.3 3.7439
10389.1 3.7175
10409.9 3.6847
10430.9 3.6484
10451.9 3.6116
10473 3.5660
10494.2 3.5091
10515.5 3.4651
10536.9 3.4331
10558.4 3.4117
10579.9 3.4040
10601.5 3.4055
10623.3 3.4007
10645.1 3.3863
10667 3.3627
10689 3.3419
10711.1 3.3235
10733.2 3.3218
10755.5 3.3235
10777.9 3.3215
10800.3 3.3170
10822.9 3.3136
10845.5 3.3050
10868.2 3.3015
10891.1 3.3079
10914 3.3312
10937 3.3489
10960.2 3.3629
10983.4 3.3818
11006.7 3.3916
11030.1 3.3888
11053.6 3.3885
11077.3 3.3990
11101 3.4244
11124.8 3.4462
11148.7 3.4618
11172.7 3.4770
11196.9 3.4897
11221.1 3.4982
11245.5 3.5029
11269.9 3.5062
11294.4 3.5151
11319.1 3.5096
11343.9 3.4935
11368.8 3.4763
11393.7 3.4680
11418.8 3.4661
11444 3.4658
11469.4 3.4745
11494.8 3.4897
11520.3 3.4995
11546 3.5067
11571.8 3.5079
11597.7 3.5044
11623.7 3.4862
11649.8 3.4631
11676 3.4429
11702.4 3.4158
11728.9 3.3809
11755.5 3.3290
11782.2 3.2639
11809 3.1981
11836 3.1289
11863.1 3.0646
11890.3 3.0010
11917.6 2.9404
11945 2.8660
11972.6 2.7725
12000.3 2.6794
12028.2 2.5868
12056.2 2.4951
12084.3 2.4023
12112.5 2.2932
12140.9 2.1825
12169.4 2.0580
12198 1.9341
12226.8 1.8144
12255.7 1.7030
12284.7 1.6260
12313.9 1.6013
12343.2 1.6235
12372.7 1.7106
12402.3 1.8478
12432 2.0081
12461.9 2.1482
12491.9 2.2416
12522.1 2.2779
12552.4 2.2640
12582.9 2.2137
12613.5 2.1626
12644.3 2.1295
12675.2 2.1464
12706.3 2.2197
12737.5 2.3323
12768.8 2.4502
12800.4 2.5419
12832.1 2.5878
12863.9 2.5825
12895.9 2.5320
12928.1 2.4674
12960.4 2.4011
12992.9 2.3505
13025.5 2.3166
13058.3 2.2930
13091.3 2.2710
13124.4 2.2554
13157.7 2.2485
13191.2 2.2425
13224.9 2.2406
13258.7 2.2491
13292.7 2.2581
13326.9 2.2715
13361.2 2.2795
13395.7 2.2906
13430.4 2.2935
13465.3 2.2875
13500.4 2.2865
13535.6 2.2798
13571.1 2.2628
13606.7 2.2504
13642.5 2.2496
13678.5 2.2743
13714.7 2.2908
13751.1 2.2952
13787.6 2.2949
13824.4 2.2848
13861.4 2.2673
13898.5 2.2272
13935.9 2.1805
13973.4 2.1468
14011.2 2.0861
