# Soil optical properties : Brown to dark brown loamy sand
# Colums : Wavelength(nm) Reflectance(%) Transmitance(%)
#
300 1.4979
400 1.4979
401 1.6676
402 1.7950
403 2.3907
404 2.3907
405 2.4995
406 2.6291
407 2.4995
408 2.6216
409 2.7809
410 2.9156
411 2.9156
412 3.0738
413 3.0828
414 3.3446
415 3.3477
416 3.3382
417 3.5154
418 3.5357
419 3.8735
420 4.0191
421 4.0308
422 4.0191
423 4.2939
424 4.5652
425 4.3980
426 4.5922
427 4.7082
428 4.7814
429 4.9389
430 5.0907
431 5.2145
432 5.4063
433 5.5142
434 5.4983
435 5.8117
436 5.8403
437 5.9923
438 5.9806
439 6.3613
440 6.4772
441 6.4959
442 6.4338
443 6.6286
444 6.7371
445 6.7241
446 6.8452
447 7.0280
448 6.8321
449 7.1012
450 7.1626
451 7.1695
452 7.4531
453 7.2901
454 7.7302
455 7.4531
456 7.8780
457 7.9901
458 7.7798
459 7.7498
460 7.9717
461 7.8051
462 7.8128
463 7.8440
464 8.1430
465 8.3411
466 7.9275
467 8.1107
468 8.3575
469 8.3411
470 8.3739
471 8.9195
472 8.9195
473 9.0468
474 8.9283
475 9.0822
476 9.1726
477 9.1816
478 9.0368
479 9.1277
480 9.4082
481 9.4449
482 9.6525
483 9.6154
484 9.5969
485 9.6860
486 9.7605
487 10.3100
488 10.3198
489 10.3874
490 10.1993
491 10.4447
492 10.3060
493 10.6399
494 10.6799
495 10.8519
496 10.8620
497 10.9797
498 11.1260
499 11.2301
500 11.2832
501 11.3244
502 11.5141
503 11.7230
504 11.7445
505 11.8486
506 11.8594
507 11.9525
508 12.0998
509 12.1767
510 12.5664
511 12.4990
512 12.5327
513 12.5910
514 12.7278
515 13.1926
516 12.7966
517 12.7626
518 13.2895
519 13.1722
520 13.5940
521 13.4028
522 13.5051
523 13.8981
524 13.5597
525 13.5479
526 13.8755
527 14.3248
528 14.2875
529 14.2875
530 14.3873
531 14.3500
532 14.0407
533 14.4623
534 14.8531
535 15.0789
536 15.0012
537 15.3436
538 15.2387
539 15.2518
540 15.4234
541 15.5087
542 15.3485
543 15.4216
544 15.9936
545 15.6314
546 15.8739
547 15.9136
548 16.0788
549 16.2835
550 16.3262
551 16.3686
552 16.5341
553 16.3130
554 16.6027
555 16.4362
556 16.7395
557 17.1370
558 17.2637
559 17.7722
560 17.6847
561 17.7805
562 17.9574
563 18.1465
564 18.1169
565 18.0516
566 18.1905
567 18.3297
568 18.4690
569 18.4989
570 18.6846
571 18.5634
572 18.6905
573 18.4690
574 18.6663
575 18.7583
576 18.8179
577 19.0384
578 19.0688
579 19.3088
580 19.5771
581 19.5925
582 19.4172
583 19.2740
584 19.6891
585 19.8559
586 19.7864
587 19.7701
588 19.7052
589 19.7864
590 19.9812
591 19.8009
592 20.1849
593 20.2964
594 20.1029
595 20.3339
596 20.3129
597 20.4077
598 20.6652
599 20.8866
600 20.3864
601 20.6844
602 20.8209
603 20.7380
604 20.8306
605 21.1553
606 21.2468
607 21.2875
608 21.2067
609 21.4892
610 21.5061
611 21.6477
612 21.6477
613 21.4556
614 21.5969
615 21.4724
616 21.5463
617 21.5463
618 21.7229
619 21.4706
620 21.5709
621 21.7159
622 22.0991
623 22.3222
624 22.3768
625 22.0860
626 21.9796
627 22.0819
628 22.4290
629 22.4511
630 22.3990
631 22.5406
632 22.7716
633 22.7015
634 22.7015
635 22.8078
636 23.0139
637 23.0555
638 23.1264
639 22.9497
640 23.3554
641 23.3733
642 23.3912
643 23.3912
644 23.4432
645 23.4611
646 23.5666
647 23.5643
648 23.4575
649 23.5643
650 23.9004
651 24.2385
652 24.3621
653 24.4733
654 24.5666
655 24.3997
656 24.1837
657 24.4362
658 24.3749
659 24.3068
660 24.2165
661 24.8455
662 24.8267
663 24.9237
664 24.8941
665 25.1606
666 25.4083
667 25.1957
668 25.6091
669 25.5321
670 25.4937
671 25.3319
672 24.9708
673 25.2174
674 25.4351
675 25.5301
676 25.4921
677 25.7117
678 25.9023
679 25.5969
680 25.3510
681 25.6535
682 25.9188
683 25.9188
684 25.8339
685 26.0228
686 26.3271
687 26.4699
688 26.5286
689 26.7114
690 26.5933
691 26.5933
692 26.7167
693 26.6326
694 26.8550
695 26.9391
696 26.8948
697 27.0748
698 27.2569
699 27.7070
700 27.4844
701 26.9458
702 26.9652
703 27.2467
704 27.3453
705 27.5466
706 27.6885
707 27.7086
708 27.7502
709 27.7301
710 27.9735
711 28.1154
712 27.9741
713 28.1963
714 28.2368
715 28.1761
716 28.0753
717 27.9746
718 28.2566
719 28.6007
720 29.0163
721 28.5990
722 28.7404
723 28.6585
724 28.8819
725 28.8954
726 28.9545
727 28.9725
728 29.1133
729 28.8128
730 28.7745
731 29.2202
732 29.3660
733 29.5870
734 29.5240
735 29.2784
736 29.2784
737 29.6776
738 29.6776
739 29.7981
740 29.8401
741 29.8191
742 29.8378
743 29.4696
744 29.6101
745 29.7957
746 29.7717
747 29.7508
748 30.2517
749 30.1920
750 30.3293
751 30.3643
752 30.2488
753 30.2517
754 30.1436
755 30.6517
756 30.6517
757 30.7747
758 30.6864
759 30.6517
760 30.7209
761 30.6146
762 30.6703
763 30.9725
764 30.8192
765 31.1995
766 31.1014
767 31.3191
768 31.1681
769 30.9969
770 31.3088
771 31.3088
772 31.3088
773 31.3289
774 31.3505
775 31.6111
776 31.6012
777 31.6447
778 31.8295
779 31.7202
780 31.8501
781 31.6002
782 31.6985
783 31.8954
784 31.8076
785 31.9583
786 32.1567
787 32.1345
788 32.1963
789 32.3070
790 31.8926
791 31.9363
792 32.1001
793 32.2618
794 31.9554
795 32.2839
796 32.4476
797 32.2964
798 32.3234
799 32.3250
800 32.4391
804 32.3849
808 32.5434
812 32.9870
816 33.0064
820 32.8849
824 32.9621
828 33.2666
832 33.5918
836 33.5604
840 33.5037
844 33.6782
848 33.8100
852 34.0261
856 34.1767
860 34.0466
864 34.4449
868 34.2282
872 34.4637
876 34.6425
880 34.6080
884 34.8632
888 34.7592
892 34.7254
896 34.8656
900 34.8227
904 34.6734
908 35.0934
912 35.3031
916 35.5342
920 35.1741
924 35.4548
928 35.6565
932 35.9306
936 35.9088
940 35.9065
944 36.1875
948 36.2275
952 36.3250
956 36.3794
960 36.5874
964 36.9016
968 36.7730
972 37.0197
976 36.8212
980 37.0283
984 36.8544
988 36.7116
992 37.5804
996 37.5354
1000 37.6540
1004 37.7475
1008 37.6559
1012 37.5682
1016 37.7730
1020 38.0219
1024 38.1131
1028 38.0679
1032 37.6129
1036 38.0605
1040 38.0453
1044 38.1593
1048 38.3858
1052 38.6725
1056 38.4989
1060 38.2954
1064 38.3179
1068 38.6783
1072 39.2587
1076 39.3982
1080 38.7398
1084 38.8381
1088 39.3051
1092 39.4810
1096 39.5471
1100 39.7721
1104 40.1805
1108 40.0809
1112 40.0340
1116 39.5897
1120 40.1386
1124 40.1805
1128 40.6286
1132 40.3110
1136 40.1141
1140 40.4510
1144 40.6179
1148 40.7840
1152 40.7802
1156 40.9363
1160 40.8694
1164 41.0825
1168 41.0982
1172 41.0746
1176 41.3142
1180 41.5077
1184 41.4336
1188 41.6039
1192 41.5296
1196 41.7491
1200 41.7976
1204 41.7733
1208 41.8357
1212 41.7630
1216 42.0573
1220 41.6732
1224 41.9695
1228 41.9203
1232 41.6595
1236 41.6732
1240 41.6244
1244 41.5515
1248 41.8111
1252 42.0201
1256 42.0818
1260 42.2790
1264 42.4512
1268 42.4631
1272 42.8669
1276 43.2931
1280 43.4127
1284 43.6253
1288 43.5434
1292 43.5524
1296 43.8368
1300 43.4961
1304 43.4467
1308 43.2816
1312 43.3157
1316 43.2913
1320 43.4558
1324 43.5051
1328 43.4969
1332 43.6956
1336 43.7042
1340 43.6720
1344 43.7367
1348 43.6709
1352 43.7194
1356 43.6773
1360 43.7197
1364 43.8368
1368 43.4249
1372 43.3967
1376 43.3325
1380 43.3943
1384 43.0501
1388 42.9600
1392 42.2358
1396 42.4481
1400 42.7666
1404 42.8554
1408 42.6694
1412 42.8574
1416 43.1168
1420 43.6703
1424 43.5060
1428 43.5060
1432 43.6294
1436 43.7368
1440 43.7119
1444 43.5800
1448 43.6537
1452 43.5143
1456 43.5553
1460 43.7920
1464 43.8089
1468 43.8166
1472 43.8060
1476 43.7184
1480 43.7350
1484 43.8089
1488 44.1030
1492 44.1387
1496 44.2211
1500 44.6227
1504 45.0213
1508 45.1874
1512 45.3184
1516 44.7644
1520 44.8256
1524 44.9007
1528 44.9611
1532 45.0254
1536 44.8143
1540 44.9457
1544 44.9257
1548 44.9806
1552 45.3467
1556 45.4283
1560 45.4790
1564 45.4030
1568 45.1464
1572 44.9662
1576 44.9962
1580 45.0663
1584 45.3169
1588 45.4536
1592 45.5044
1596 45.5553
1600 45.2975
1604 45.6543
1608 45.7484
1612 45.5670
1616 45.6468
1620 45.6122
1624 45.7484
1628 45.6722
1632 45.5709
1636 45.5495
1640 45.5747
1644 45.5785
1648 45.6000
1652 45.6542
1656 45.3695
1660 45.2737
1664 45.4820
1668 45.5282
1672 45.5572
1676 45.8448
1680 45.8311
1684 45.5898
1688 45.7440
1692 45.7977
1696 45.7474
1700 46.1430
1704 46.2489
1708 46.0896
1712 46.2158
1716 46.3149
1720 46.1239
1724 46.3031
1728 46.6035
1732 46.2568
1736 46.6346
1740 46.4446
1744 46.4466
1748 46.4293
1752 46.5046
1756 46.3711
1760 46.4500
1764 46.6088
1768 46.6616
1772 46.4976
1776 46.4976
1780 46.6114
1784 46.5346
1788 46.0393
1792 46.0644
1796 46.6383
1800 46.8200
1804 46.4780
1808 46.1426
1812 46.0672
1816 45.8639
1820 46.1955
1824 46.5542
1828 46.5317
1832 46.4467
1836 46.6008
1840 46.5517
1844 46.5964
1848 46.6885
1852 46.3834
1856 46.2064
1860 45.8898
1864 45.8961
1868 45.9676
1872 45.6505
1876 45.4899
1880 45.4581
1884 45.1327
1888 44.6737
1892 44.2950
1896 43.6892
1900 43.0541
1904 42.6780
1908 42.1448
1912 42.0156
1916 42.1506
1920 42.0498
1924 42.3180
1928 42.4901
1932 42.7418
1936 42.8724
1940 42.9694
1944 43.1842
1948 43.2397
1952 43.1684
1956 43.0973
1960 43.2001
1964 43.5324
1968 43.8409
1972 43.7633
1976 44.1194
1980 44.3053
1984 44.6110
1988 44.4181
1992 44.5970
1996 45.0799
2000 45.1256
2004 45.7870
2008 45.4366
2012 45.2659
2016 45.4679
2020 45.0722
2024 45.2250
2028 45.3291
2032 44.9605
2036 45.3324
2040 45.2844
2044 45.8332
2048 45.6361
2052 45.7634
2056 45.4917
2060 45.0975
2064 45.1647
2068 45.2645
2072 45.1545
2076 45.2053
2079.5 44.8483
2080.3 44.7994
2081.2 44.7821
2082 44.8058
2082.8 44.8419
2083.7 44.7916
2084.5 44.7159
2085.3 44.7130
2086.2 44.8151
2087 44.8009
2087.9 44.7460
2088.7 44.7272
2089.5 44.7521
2090.4 44.7521
2091.2 44.6972
2092.1 44.7948
2092.9 44.9303
2093.8 44.8136
2094.6 44.7853
2095.5 44.7758
2096.3 44.7727
2097.1 44.8231
2098 44.7333
2098.8 44.7870
2099.7 44.8546
2100.5 44.8136
2101.4 44.6675
2102.3 44.7098
2103.1 44.8673
2104 44.9745
2104.8 44.9696
2105.7 44.8497
2106.5 44.8370
2107.4 44.8231
2108.2 44.7882
2109.1 44.7492
2110 44.7113
2110.8 44.7382
2111.7 44.7711
2112.5 44.7223
2113.4 44.7191
2114.3 44.6972
2115.1 44.6375
2116 44.7067
2116.8 44.7821
2117.7 44.7870
2118.6 44.7948
2119.4 44.7662
2120.3 44.7176
2121.2 44.7882
2122 44.8405
2122.9 44.8451
2123.8 44.8261
2124.7 44.6610
2125.5 44.6454
2126.4 44.7509
2127.3 44.8861
2128.1 44.7662
2129 44.7191
2129.9 44.7648
2130.8 44.6878
2131.6 44.5453
2132.5 44.6786
2133.4 44.7916
2134.3 44.7882
2135.2 44.7333
2136 44.7758
2136.9 44.7980
2137.8 44.7113
2138.7 44.6298
2139.6 44.6769
2140.4 44.6705
2141.3 44.6080
2142.2 44.4559
2143.1 44.4750
2144 44.5389
2144.9 44.6675
2145.8 44.6688
2146.6 44.5529
2147.5 44.5421
2148.4 44.4843
2149.3 44.4935
2150.2 44.4640
2151.1 44.3766
2152 44.4169
2152.9 44.4218
2153.8 44.3514
2154.7 44.3810
2155.6 44.3374
2156.5 44.2876
2157.4 44.2472
2158.3 44.2037
2159.2 44.2069
2160.1 44.1820
2161 44.1526
2161.9 44.2394
2162.8 44.2301
2163.7 44.1664
2164.6 44.1137
2165.5 44.1571
2166.4 44.1820
2167.3 44.1107
2168.2 44.0176
2169.1 43.9838
2170 43.9913
2170.9 44.0425
2171.8 44.0580
2172.7 44.0797
2173.6 44.0376
2174.6 43.9513
2175.5 43.8710
2176.4 43.8803
2177.3 43.9203
2178.2 43.9498
2179.1 43.9713
2180 43.8602
2181 43.7401
2181.9 43.8431
2182.8 43.8419
2183.7 43.7355
2184.6 43.8034
2185.6 43.7880
2186.5 43.6835
2187.4 43.6251
2188.3 43.6022
2189.3 43.5560
2190.2 43.5929
2191.1 43.5836
2192 43.5394
2193 43.5180
2193.9 43.4830
2194.8 43.4569
2195.7 43.4324
2196.7 43.4357
2197.6 43.4003
2198.5 43.3273
2199.5 43.2846
2200.4 43.2604
2201.3 43.2572
2202.3 43.2465
2203.2 43.2665
2204.1 43.2301
2205.1 43.1449
2206 43.0541
2207 43.0165
2207.9 43.0949
2208.8 43.1493
2209.8 43.1403
2210.7 43.1979
2211.7 43.3761
2212.6 43.4979
2213.6 43.6481
2214.5 43.7601
2215.5 43.7186
2216.4 43.7540
2217.3 43.9005
2218.3 43.8588
2219.2 43.8849
2220.2 44.0209
2221.1 44.0319
2222.1 44.0409
2223.1 44.0006
2224 44.0487
2225 44.0702
2225.9 44.1526
2226.9 44.1927
2227.8 44.1403
2228.8 44.1664
2229.7 44.1896
2230.7 44.1603
2231.7 44.2037
2232.6 44.2785
2233.6 44.2689
2234.5 44.2130
2235.5 44.1759
2236.5 44.2052
2237.4 44.2316
2238.4 44.2472
2239.4 44.2269
2240.3 44.2350
2241.3 44.2020
2242.3 44.1852
2243.3 44.2255
2244.2 44.1586
2245.2 44.1618
2246.2 44.1945
2247.1 44.1696
2248.1 44.1215
2249.1 44.1277
2250.1 44.1403
2251 44.0333
2252 43.9760
2253 44.1014
2254 44.1696
2255 44.1742
2255.9 44.1046
2256.9 44.0319
2257.9 44.0690
2258.9 44.1122
2259.9 43.9667
2260.9 43.9774
2261.8 44.0783
2262.8 44.0922
2263.8 44.0519
2264.8 44.0038
2265.8 43.9806
2266.8 44.0238
2267.8 44.0287
2268.8 43.9867
2269.8 43.9313
2270.8 43.8973
2271.8 43.9962
2272.8 44.0319
2273.8 44.0333
2274.7 44.0131
2275.7 43.8773
2276.7 43.8634
2277.7 43.9606
2278.7 43.9157
2279.8 43.9096
2280.8 43.9467
2281.8 43.9081
2282.8 43.8619
2283.8 43.8480
2284.8 43.8742
2285.8 43.8356
2286.8 43.8234
2287.8 43.7987
2288.8 43.8480
2289.8 43.9049
2290.8 43.8726
2291.8 43.7970
2292.9 43.7418
2293.9 43.7401
2294.9 43.7572
2295.9 43.7819
2296.9 43.7157
2297.9 43.7525
2299 43.6742
2300 43.6281
2301 43.6588
2302 43.6574
2303 43.6605
2304.1 43.6268
2305.1 43.5885
2306.1 43.5380
2307.1 43.5180
2308.2 43.5609
2309.2 43.5455
2310.2 43.5011
2311.3 43.4462
2312.3 43.4401
2313.3 43.4447
2314.4 43.4357
2315.4 43.4479
2316.4 43.4384
2317.5 43.4523
2318.5 43.4401
2319.5 43.4188
2320.6 43.4017
2321.6 43.3561
2322.6 43.3031
2323.7 43.3031
2324.7 43.3287
2325.8 43.3439
2326.8 43.3058
2327.9 43.2724
2328.9 43.3151
2330 43.2846
2331 43.2985
2332.1 43.3380
2333.1 43.2650
2334.2 43.2179
2335.2 43.2072
2336.3 43.1967
2337.3 43.1889
2338.4 43.1752
2339.4 43.1603
2340.5 43.1420
2341.5 42.9876
2342.6 42.9982
2343.6 43.1010
2344.7 43.0407
2345.8 42.9967
2346.8 42.9996
2347.9 42.9755
2349 42.9682
2350 42.9589
2351.1 42.8624
2352.2 42.8685
2353.2 42.9682
2354.3 42.9694
2355.4 42.9166
2356.4 42.9288
2357.5 42.9635
2358.6 42.9635
2359.7 42.9408
2360.7 42.9032
2361.8 42.8986
2362.9 42.9288
2364 42.9635
2365 42.9513
2366.1 42.9213
2367.2 42.9166
2368.3 42.9454
2369.4 42.9574
2370.4 42.8895
2371.5 42.7887
2372.6 42.7931
2373.7 42.7872
2374.8 42.8082
2375.9 42.7753
2377 42.7240
2378.1 42.7257
2379.1 42.7135
2380.2 42.7287
2381.3 42.7467
2382.4 42.7135
2383.5 42.6808
2384.6 42.6703
2385.7 42.6491
2386.8 42.6222
2387.9 42.6102
2389 42.6461
2390.1 42.6624
2391.2 42.6354
2392.3 42.6312
2393.4 42.6073
2394.5 42.6102
2395.6 42.6073
2396.7 42.6234
2397.9 42.6972
2399 42.6867
2400.1 42.5936
2401.2 42.5563
2402.3 42.5995
2403.4 42.5968
2404.5 42.5636
2405.6 42.5385
2406.8 42.5025
2407.9 42.5294
2409 42.5609
2410.1 42.5099
2411.2 42.4562
2412.4 42.4175
2413.5 42.3712
2414.6 42.4220
2415.7 42.3966
2416.9 42.2909
2418 42.2479
2419.1 42.2970
2420.2 42.2567
2421.4 42.2064
2422.5 42.2035
2423.6 42.1752
2424.8 42.1500
2425.9 42.1412
2427 42.0731
2428.2 42.0451
2429.3 42.0673
2430.5 41.9948
2431.6 41.9418
2432.7 41.8607
2433.9 41.8209
2435 41.7934
2436.2 41.7714
2437.3 41.7816
2438.5 41.7255
2439.6 41.6583
2440.8 41.6613
2441.9 41.6786
2443.1 41.6012
2444.2 41.5370
2445.4 41.5036
2446.5 41.5458
2447.7 41.5926
2448.8 41.5036
2450 41.4044
2451.1 41.4074
2452.3 41.4335
2453.5 41.4059
2454.6 41.4044
2455.8 41.4118
2456.9 41.3810
2458.1 41.3493
2459.3 41.3537
2460.4 41.3187
2461.6 41.2621
2462.8 41.2621
2464 41.2304
2465.1 41.2257
2466.3 41.2448
2467.5 41.1508
2468.6 41.0712
2469.8 41.1261
2471 41.1405
2472.2 41.0612
2473.4 41.0351
2474.5 41.0656
2475.7 41.0351
2476.9 41.0092
2478.1 40.9845
2479.3 40.9345
2480.5 40.9115
2481.6 40.8109
2482.8 40.7621
2484 40.8466
2485.2 40.8153
2486.4 40.7492
2487.6 40.7462
2488.8 40.7333
2490 40.6618
2491.2 40.6964
2492.4 40.7435
2493.6 40.6405
2494.8 40.5963
2496 40.6261
2497.2 40.6290
2498.4 40.6134
2499.6 40.6364
2500.8 40.6122
2502 40.5777
2503.2 40.6063
2504.4 40.6207
2505.6 40.5993
2506.8 40.5722
2508.1 40.5153
2509.3 40.4823
2510.5 40.5421
2511.7 40.4979
2512.9 40.4455
2514.1 40.4811
2515.4 40.4694
2516.6 40.4738
2517.8 40.4723
2519 40.4694
2520.2 40.4723
2521.5 40.4098
2522.7 40.3446
2523.9 40.3959
2525.2 40.4611
2526.4 40.4425
2527.6 40.4298
2528.9 40.4440
2530.1 40.3732
2531.3 40.2780
2532.6 40.2287
2533.8 40.2907
2535 40.2213
2536.3 40.2160
2537.5 40.2951
2538.8 40.2694
2540 40.3107
2541.3 40.2440
2542.5 40.0143
2543.7 40.0143
2545 40.1312
2546.2 40.1171
2547.5 40.0495
2548.7 40.0917
2550 40.0019
2551.3 39.8754
2552.5 39.8361
2553.8 40.0495
2555 40.1466
2556.3 40.1706
2557.5 40.2062
2558.8 40.0438
2560.1 39.5197
2561.3 39.1588
2562.6 39.1852
2563.9 39.2636
2565.1 39.6322
2566.4 40.0072
2567.7 39.8500
2569 39.4364
2570.2 39.5905
2571.5 39.7733
2572.8 39.1175
2574.1 39.2487
2575.3 39.5114
2576.6 39.2995
2577.9 39.5988
2579.2 39.7482
2580.5 39.3588
2581.7 39.2182
2583 38.7089
2584.3 38.7633
2585.6 39.2003
2586.9 38.9750
2588.2 39.0985
2589.5 39.3285
2590.8 39.5543
2592.1 39.2306
2593.4 37.6784
2594.7 36.5299
2596 37.7963
2597.3 39.1107
2598.6 39.5474
2599.9 39.4364
2601.2 39.1137
2602.5 38.8644
2603.8 38.3783
2605.1 37.7843
2606.4 38.2008
2607.7 38.7279
2609 38.7865
2610.3 38.9340
2611.7 39.0971
2613 38.9711
2614.3 38.9162
2615.6 38.2250
2616.9 37.8256
2618.3 38.2331
2619.6 37.7550
2620.9 37.9427
2622.2 38.8520
2623.6 38.9503
2624.9 38.5216
2626.2 37.8043
2627.5 38.0922
2628.9 37.7843
2630.2 37.0705
2631.5 37.6955
2632.9 38.0668
2634.2 38.0829
2635.6 38.3246
2636.9 38.2292
2638.2 38.1793
2639.6 38.1205
2640.9 37.8986
2642.3 37.7274
2643.6 37.6637
2645 37.3554
2646.3 37.3226
2647.7 37.4552
2649 37.3700
2650.4 37.0912
2651.7 36.6701
2653.1 36.5504
2654.5 36.5070
2655.8 36.3583
2657.2 36.3954
2658.5 36.0111
2659.9 35.7353
2661.3 35.5736
2662.6 35.3170
2664 34.2094
2665.4 33.2904
2666.7 33.1808
2668.1 33.5429
2669.5 32.4897
2670.9 32.1727
2672.2 33.0898
2673.6 32.9818
2675 32.0419
2676.4 31.1044
2677.8 30.7525
2679.1 30.3744
2680.5 30.2424
2681.9 29.5951
2683.3 28.6115
2684.7 27.6467
2686.1 26.5380
2687.5 25.2980
2688.9 23.9133
2690.3 22.4675
2691.7 20.7651
2693.1 18.7661
2694.5 17.1438
2695.9 15.8283
2697.3 14.6245
2698.7 13.4069
2700.1 12.1897
2701.5 11.1701
2702.9 10.5520
2704.3 10.2407
2705.7 10.2956
2707.1 10.5122
2708.5 10.6792
2710 10.7900
2711.4 11.0547
2712.8 11.4516
2714.2 11.5508
2715.6 11.4301
2717.1 11.1787
2718.5 10.7895
2719.9 10.2837
2721.3 10.1084
2722.8 9.8574
2724.2 9.3984
2725.6 9.2849
2727.1 9.3330
2728.5 9.2239
2729.9 9.0449
2731.4 8.8327
2732.8 8.5381
2734.3 8.2248
2735.7 8.0996
2737.1 8.0168
2738.6 7.7102
2740 7.5217
2741.5 7.5786
2742.9 7.7074
2744.4 7.7029
2745.8 7.6416
2747.3 7.5596
2748.8 7.4270
2750.2 7.3315
2751.7 7.1548
2753.1 6.9001
2754.6 6.5732
2756.1 6.4216
2757.5 6.4225
2759 6.3572
2760.5 6.2219
2761.9 6.1155
2763.4 6.3489
2764.9 6.7385
2766.4 7.0293
2767.8 7.2956
2769.3 7.4770
2770.8 7.5971
2772.3 7.7966
2773.8 7.9424
2775.2 7.9983
2776.7 8.0088
2778.2 8.0456
2779.7 8.0991
2781.2 8.0908
2782.7 8.1794
2784.2 8.2356
2785.7 8.1762
2787.2 8.1704
2788.7 8.2395
2790.2 8.3291
2791.7 8.3428
2793.2 8.3723
2794.7 8.4233
2796.2 8.3713
2797.7 8.3327
2799.2 8.3493
2800.7 8.2975
2802.2 8.2378
2803.8 8.2409
2805.3 8.2817
2806.8 8.3003
2808.3 8.2969
2809.8 8.2685
2811.4 8.2461
2812.9 8.2046
2814.4 8.1701
2815.9 8.1301
2817.5 8.0212
2819 7.9284
2820.5 7.9460
2822.1 8.0110
2823.6 7.9385
2825.2 7.7883
2826.7 7.7175
2828.2 7.6679
2829.8 7.6555
2831.3 7.5627
2832.9 7.4382
2834.4 7.3818
2836 7.3606
2837.5 7.3933
2839.1 7.4861
2840.6 7.5427
2842.2 7.4773
2843.7 7.4438
2845.3 7.4768
2846.9 7.4712
2848.4 7.4221
2850 7.4353
2851.6 7.4807
2853.1 7.4682
2854.7 7.3965
2856.3 7.3591
2857.9 7.3266
2859.4 7.3520
2861 7.3672
2862.6 7.3696
2864.2 7.3218
2865.8 7.1977
2867.3 7.1745
2868.9 7.1343
2870.5 7.0571
2872.1 7.0781
2873.7 7.0483
2875.3 6.9878
2876.9 6.9502
2878.5 6.9297
2880.1 6.8613
2881.7 6.7854
2883.3 6.7829
2884.9 6.7534
2886.5 6.7073
2888.1 6.6958
2889.7 6.6252
2891.3 6.5849
2892.9 6.5498
2894.6 6.5159
2896.2 6.5359
2897.8 6.6118
2899.4 6.6211
2901 6.5451
2902.7 6.4825
2904.3 6.5486
2905.9 6.5762
2907.5 6.5835
2909.2 6.6120
2910.8 6.6224
2912.4 6.6006
2914.1 6.5974
2915.7 6.6465
2917.4 6.6977
2919 6.6909
2920.7 6.7187
2922.3 6.7278
2923.9 6.7287
2925.6 6.7746
2927.2 6.7295
2928.9 6.7239
2930.6 6.7793
2932.2 6.7866
2933.9 6.7444
2935.5 6.7541
2937.2 6.7827
2938.9 6.7441
2940.5 6.7143
2942.2 6.7412
2943.9 6.7121
2945.5 6.6946
2947.2 6.6887
2948.9 6.6782
2950.6 6.6809
2952.3 6.6877
2953.9 6.7480
2955.6 6.7366
2957.3 6.6777
2959 6.6697
2960.7 6.6990
2962.4 6.7746
2964.1 6.8010
2965.8 6.8139
2967.5 6.8479
2969.2 6.8052
2970.9 6.8367
2972.6 6.8994
2974.3 6.9148
2976 6.9057
2977.7 6.9372
2979.4 6.9673
2981.1 6.9585
2982.8 7.0017
2984.5 7.0705
2986.3 7.0549
2988 7.0210
2989.7 7.0320
2991.4 7.1135
2993.2 7.1352
2994.9 7.1472
2996.6 7.1372
2998.4 7.1413
3000.1 7.1565
3001.8 7.2077
3003.6 7.1902
3005.3 7.1838
3007 7.2082
3008.8 7.2125
3010.5 7.2358
3012.3 7.2207
3014 7.2055
3015.8 7.2673
3017.6 7.3454
3019.3 7.3330
3021.1 7.2785
3022.8 7.3308
3024.6 7.3681
3026.4 7.3452
3028.1 7.3662
3029.9 7.4004
3031.7 7.4006
3033.4 7.4277
3035.2 7.4643
3037 7.4704
3038.8 7.4563
3040.6 7.4668
3042.3 7.4592
3044.1 7.5049
3045.9 7.5459
3047.7 7.5471
3049.5 7.5759
3051.3 7.5796
3053.1 7.5679
3054.9 7.5913
3056.7 7.6674
3058.5 7.6848
3060.3 7.6421
3062.1 7.6936
3063.9 7.7068
3065.7 7.6955
3067.5 7.7383
3069.4 7.7822
3071.2 7.8069
3073 7.8369
3074.8 7.8603
3076.6 7.8955
3078.5 7.9397
3080.3 7.9402
3082.1 7.9419
3084 7.9604
3085.8 7.9641
3087.6 7.9587
3089.5 8.0149
3091.3 8.0642
3093.2 8.0661
3095 8.0981
3096.9 8.1264
3098.7 8.1743
3100.6 8.2248
3102.4 8.2629
3104.3 8.2768
3106.1 8.2549
3108 8.2529
3109.9 8.2998
3111.7 8.3208
3113.6 8.3818
3115.5 8.4377
3117.4 8.4392
3119.2 8.3994
3121.1 8.4414
3123 8.5005
3124.9 8.5488
3126.8 8.6006
3128.6 8.6501
3130.5 8.6367
3132.4 8.6638
3134.3 8.7009
3136.2 8.7358
3138.1 8.8020
3140 8.8415
3141.9 8.8598
3143.8 8.8952
3145.7 8.9328
3147.6 8.9963
3149.5 9.0486
3151.5 9.1098
3153.4 9.1525
3155.3 9.1931
3157.2 9.2544
3159.1 9.3095
3161.1 9.3093
3163 9.3562
3164.9 9.4419
3166.9 9.4914
3168.8 9.5307
3170.7 9.5371
3172.7 9.5754
3174.6 9.6548
3176.6 9.6784
3178.5 9.7099
3180.5 9.7854
3182.4 9.8469
3184.4 9.8701
3186.3 9.8869
3188.3 9.9555
3190.2 10.0110
3192.2 10.0444
3194.2 10.0835
3196.1 10.1323
3198.1 10.2273
3200.1 10.2644
3202.1 10.2510
3204 10.2749
3206 10.3388
3208 10.4157
3210 10.4822
3212 10.5107
3214 10.5488
3216 10.5991
3218 10.6438
3220 10.7302
3222 10.7915
3224 10.7895
3226 10.8020
3228 10.8945
3230 10.9780
3232 10.9848
3234 11.0146
3236.1 11.0464
3238.1 11.1037
3240.1 11.2177
3242.1 11.2807
3244.2 11.3071
3246.2 11.3659
3248.2 11.3896
3250.3 11.4389
3252.3 11.5266
3254.3 11.5967
3256.4 11.6457
3258.4 11.6911
3260.5 11.7351
3262.5 11.7712
3264.6 11.8554
3266.6 11.9341
3268.7 11.9529
3270.8 12.0078
3272.8 12.0705
3274.9 12.1323
3277 12.1999
3279 12.2580
3281.1 12.3134
3283.2 12.3720
3285.3 12.4448
3287.4 12.5036
3289.4 12.5593
3291.5 12.6272
3293.6 12.6762
3295.7 12.7370
3297.8 12.8134
3299.9 12.8862
3302 12.9338
3304.1 12.9983
3306.2 13.0393
3308.3 13.1003
3310.4 13.1496
3312.6 13.2304
3314.7 13.3222
3316.8 13.3466
3318.9 13.3864
3321 13.4692
3323.2 13.4904
3325.3 13.5183
3327.4 13.5752
3329.6 13.6450
3331.7 13.6640
3333.9 13.6709
3336 13.7287
3338.2 13.8191
3340.3 13.8598
3342.5 13.8432
3344.6 13.8332
3346.8 13.9052
3348.9 13.9699
3351.1 13.9968
3353.3 13.9528
3355.4 13.9358
3357.6 13.9577
3359.8 13.9521
3362 13.9492
3364.1 13.9543
3366.3 13.9563
3368.5 13.9829
3370.7 13.9694
3372.9 13.9587
3375.1 13.9592
3377.3 13.9582
3379.5 13.9670
3381.7 14.0014
3383.9 14.0363
3386.1 14.0605
3388.3 14.0783
3390.6 14.0630
3392.8 14.0354
3395 14.0339
3397.2 14.0156
3399.4 13.9978
3401.7 13.9738
3403.9 13.9558
3406.1 13.9209
3408.4 13.9150
3410.6 13.8896
3412.9 13.8794
3415.1 13.8803
3417.4 13.8813
3419.6 13.9375
3421.9 13.9992
3424.1 14.0571
3426.4 14.1587
3428.7 14.3469
3430.9 14.5822
3433.2 14.7978
3435.5 14.9895
3437.8 15.1275
3440 15.2680
3442.3 15.4170
3444.6 15.5092
3446.9 15.5979
3449.2 15.7375
3451.5 15.8469
3453.8 15.8960
3456.1 15.9636
3458.4 16.0705
3460.7 16.1369
3463 16.1975
3465.3 16.2890
3467.7 16.3732
3470 16.4599
3472.3 16.5300
3474.6 16.5666
3477 16.5810
3479.3 16.6208
3481.6 16.6933
3484 16.7463
3486.3 16.8046
3488.7 16.8513
3491 16.8620
3493.4 16.8757
3495.7 16.8708
3498.1 16.8164
3500.4 16.7910
3502.8 16.8002
3505.2 16.8175
3507.5 16.8671
3509.9 17.0700
3512.3 17.3767
3514.7 17.6586
3517.1 17.8791
3519.5 18.0952
3521.8 18.3073
3524.2 18.4340
3526.6 18.5475
3529 18.6950
3531.4 18.7697
3533.8 18.8181
3536.3 18.8991
3538.7 18.9995
3541.1 19.0979
3543.5 19.2089
3545.9 19.3015
3548.4 19.3674
3550.8 19.3981
3553.2 19.4631
3555.7 19.5246
3558.1 19.5617
3560.5 19.6416
3563 19.7441
3565.4 19.7919
3567.9 19.8303
3570.4 19.9124
3572.8 19.9707
3575.3 19.9876
3577.7 20.0480
3580.2 20.1208
3582.7 20.1850
3585.2 20.2719
3587.6 20.3488
3590.1 20.3835
3592.6 20.4348
3595.1 20.4960
3597.6 20.5502
3600.1 20.6013
3602.6 20.6528
3605.1 20.7023
3607.6 20.7729
3610.1 20.8373
3612.7 20.8740
3615.2 20.9299
3617.7 21.0092
3620.2 21.0690
3622.7 21.1101
3625.3 21.1606
3627.8 21.2729
3630.4 21.3149
3632.9 21.3373
3635.5 21.4252
3638 21.4750
3640.6 21.5068
3643.1 21.5507
3645.7 21.5651
3648.2 21.6249
3650.8 21.6760
3653.4 21.7001
3656 21.7629
3658.5 21.8059
3661.1 21.7980
3663.7 21.8126
3666.3 21.8456
3668.9 21.8679
3671.5 21.8710
3674.1 21.8896
3676.7 21.9409
3679.3 21.9479
3681.9 21.9072
3684.5 21.9062
3687.2 21.9340
3689.8 21.9003
3692.4 21.8496
3695 21.8526
3697.7 21.8426
3700.3 21.8510
3703 21.8649
3705.6 21.8364
3708.3 21.7973
3710.9 21.8026
3713.6 21.8120
3716.2 21.7751
3718.9 21.7612
3721.6 21.7453
3724.2 21.7348
3726.9 21.7578
3729.6 21.7758
3732.3 21.7912
3735 21.8420
3737.7 21.8896
3740.4 21.9350
3743.1 21.9633
3745.8 21.9958
3748.5 22.0632
3751.2 22.1313
3753.9 22.1789
3756.6 22.2514
3759.4 22.3117
3762.1 22.4030
3764.8 22.4976
3767.6 22.5642
3770.3 22.6022
3773 22.6889
3775.8 22.7993
3778.5 22.8691
3781.3 22.9228
3784.1 22.9711
3786.8 23.0204
3789.6 23.0998
3792.4 23.1642
3795.1 23.1957
3797.9 23.2524
3800.7 23.3290
3803.5 23.3422
3806.3 23.3359
3809.1 23.3544
3811.9 23.3801
3814.7 23.3825
3817.5 23.3957
3820.3 23.4089
3823.1 23.4252
3825.9 23.3915
3828.8 23.3669
3831.6 23.4269
3834.4 23.4318
3837.3 23.4089
3840.1 23.4081
3843 23.4276
3845.8 23.4648
3848.7 23.4672
3851.5 23.4540
3854.4 23.5143
3857.3 23.5732
3860.1 23.6162
3863 23.6618
3865.9 23.6857
3868.8 23.7325
3871.7 23.7961
3874.6 23.8454
3877.5 23.8991
3880.4 23.9665
3883.3 24.0446
3886.2 24.1293
3889.1 24.1889
3892 24.2280
3894.9 24.2690
3897.9 24.3818
3900.8 24.4470
3903.7 24.4684
3906.7 24.5090
3909.6 24.5595
3912.6 24.5744
3915.5 24.5666
3918.5 24.5934
3921.4 24.6323
3924.4 24.6218
3927.4 24.6271
3930.4 24.6340
3933.3 24.6226
3936.3 24.5702
3939.3 24.5107
3942.3 24.5090
3945.3 24.5174
3948.3 24.5029
3951.3 24.4374
3954.4 24.3493
3957.4 24.2971
3960.4 24.2817
3963.4 24.2231
3966.5 24.1303
3969.5 24.0600
3972.5 24.0380
3975.6 24.0170
3978.6 24.0143
3981.7 23.9672
3984.7 23.9294
3987.8 23.9033
3990.9 23.8615
3994 23.8237
3997 23.7851
4000.1 23.7570
4003.2 23.7525
4006.3 23.7978
4009.4 23.8061
4012.5 23.8381
4015.6 23.8588
4018.7 23.8447
4021.8 23.8705
4025 23.9128
4028.1 23.9621
4031.2 23.9699
4034.4 24.0019
4037.5 24.0566
4040.6 24.0847
4043.8 24.1175
4047 24.1738
4050.1 24.1889
4053.3 24.1794
4056.5 24.1948
4059.6 24.2194
4062.8 24.2372
4066 24.2307
4069.2 24.2153
4072.4 24.1769
4075.6 24.1124
4078.8 24.0500
4082 23.9892
4085.2 23.9245
4088.4 23.8757
4091.7 23.7929
4094.9 23.7194
4098.1 23.6245
4101.4 23.5012
4104.6 23.4360
4107.9 23.3571
4111.1 23.2402
4114.4 23.1203
4117.7 23.0125
4120.9 22.9164
4124.2 22.8425
4127.5 22.7600
4130.8 22.6762
4134.1 22.5886
4137.4 22.4992
4140.7 22.4211
4144 22.3693
4147.3 22.2978
4150.6 22.2125
4154 22.1518
4157.3 22.1059
4160.6 22.0175
4164 21.9265
4167.3 21.8535
4170.7 21.7880
4174 21.7141
4177.4 21.6210
4180.8 21.4956
4184.1 21.3879
4187.5 21.3142
4190.9 21.2490
4194.3 21.1664
4197.7 21.0683
4201.1 21.0322
4204.5 21.0234
4207.9 21.0036
4211.3 20.9628
4214.8 20.8732
4218.2 20.7692
4221.6 20.6538
4225.1 20.5610
4228.5 20.4816
4232 20.4062
4235.4 20.3632
4238.9 20.3624
4242.4 20.4340
4245.8 20.5148
4249.3 20.5749
4252.8 20.6088
4256.3 20.5326
4259.8 20.3475
4263.3 20.1694
4266.8 19.9968
4270.3 19.8356
4273.8 19.7128
4277.4 19.6347
4280.9 19.5666
4284.4 19.5019
4288 19.4799
4291.5 19.5041
4295.1 19.5588
4298.6 19.6706
4302.2 19.7668
4305.8 19.8469
4309.4 19.9519
4312.9 20.0693
4316.5 20.2106
4320.1 20.2697
4323.7 20.2597
4327.3 20.2674
4331 20.2106
4334.6 20.1323
4338.2 20.0678
4341.8 19.9448
4345.5 19.7807
4349.1 19.5942
4352.8 19.3818
4356.4 19.1335
4360.1 18.8242
4363.8 18.5373
4367.4 18.2407
4371.1 17.9116
4374.8 17.5542
4378.5 17.1933
4382.2 16.8642
4385.9 16.5507
4389.6 16.2182
4393.4 15.8774
4397.1 15.5649
4400.8 15.2751
4404.5 14.9831
4408.3 14.7170
4412 14.5041
4415.8 14.3012
4419.6 14.0688
4423.3 13.8422
4427.1 13.6545
4430.9 13.4648
4434.7 13.2824
4438.5 13.1479
4442.3 13.0188
4446.1 12.8537
4449.9 12.6455
4453.7 12.4135
4457.6 12.1609
4461.4 11.9568
4465.2 11.8640
4469.1 11.8371
4473 11.8899
4476.8 12.0114
4480.7 12.1472
4484.6 12.2656
4488.4 12.3950
4492.3 12.5503
4496.2 12.7878
4500.1 13.1416
4504 13.5307
4508 13.9956
4511.9 14.5351
4515.8 15.0788
4519.7 15.6301
4523.7 16.1482
4527.6 16.6049
4531.6 17.0461
4535.6 17.4704
4539.5 17.8620
4543.5 18.2111
4547.5 18.5463
4551.5 18.8452
4555.5 19.0502
4559.5 19.2014
4563.5 19.3083
4567.5 19.3803
4571.6 19.4365
4575.6 19.4582
4579.6 19.4631
4583.7 19.4157
4587.7 19.3547
4591.8 19.3166
4595.9 19.2231
4600 19.0798
4604 18.9533
4608.1 18.8293
4612.2 18.6777
4616.3 18.4677
4620.5 18.2478
4624.6 17.9809
4628.7 17.7009
4632.8 17.3889
4637 17.0341
4641.1 16.6435
4645.3 16.2385
4649.5 15.8317
4653.6 15.4318
4657.8 15.0617
4662 14.6974
4666.2 14.2922
4670.4 13.8469
4674.6 13.4951
4678.8 13.2863
4683.1 13.2470
4687.3 13.3852
4691.5 13.7031
4695.8 14.0981
4700 14.4760
4704.3 14.8086
4708.6 15.0954
4712.9 15.3046
4717.2 15.4419
4721.5 15.5036
4725.8 15.5195
4730.1 15.4738
4734.4 15.4091
4738.7 15.3596
4743.1 15.2912
4747.4 15.1594
4751.7 15.0207
4756.1 14.8986
4760.5 14.7492
4764.8 14.5766
4769.2 14.3923
4773.6 14.2299
4778 14.0398
4782.4 13.8093
4786.8 13.5893
4791.3 13.3903
4795.7 13.2041
4800.1 12.9987
4804.6 12.7812
4809 12.5366
4813.5 12.2695
4818 12.0222
4822.5 11.7573
4827 11.4973
4831.5 11.2365
4836 10.9441
4840.5 10.6377
4845 10.3330
4849.5 9.9995
4854.1 9.6528
4858.6 9.2754
4863.2 8.8845
4867.8 8.4853
4872.3 8.0466
4876.9 7.6162
4881.5 7.1858
4886.1 6.7202
4890.7 6.2651
4895.3 5.8276
4900 5.4216
4904.6 5.1001
4909.2 4.8176
4913.9 4.6033
4918.6 4.4514
4923.2 4.3420
4927.9 4.2402
4932.6 4.1509
4937.3 4.0830
4942 4.0395
4946.7 4.0259
4951.4 3.9731
4956.2 3.8642
4960.9 3.7795
4965.7 3.7212
4970.4 3.6621
4975.2 3.6194
4980 3.5891
4984.8 3.5559
4989.6 3.5073
4994.4 3.4766
4999.2 3.4597
5004 3.4385
5008.8 3.4216
5013.7 3.4228
5018.5 3.4074
5023.4 3.3960
5028.3 3.4104
5033.2 3.4172
5038 3.4182
5043 3.4231
5047.9 3.4001
5052.8 3.3848
5057.7 3.3728
5062.7 3.3784
5067.6 3.4119
5072.6 3.4111
5077.5 3.3938
5082.5 3.3921
5087.5 3.4280
5092.5 3.4480
5097.5 3.4509
5102.5 3.4690
5107.5 3.4853
5112.6 3.4717
5117.6 3.4448
5122.7 3.4343
5127.7 3.4174
5132.8 3.4319
5137.9 3.4194
5143 3.3945
5148.1 3.3933
5153.2 3.4104
5158.4 3.4224
5163.5 3.3977
5168.6 3.3896
5173.8 3.4036
5179 3.4133
5184.2 3.3992
5189.3 3.3767
5194.5 3.3462
5199.8 3.3174
5205 3.3017
5210.2 3.2729
5215.4 3.2217
5220.7 3.1453
5226 3.0684
5231.2 3.0117
5236.5 2.9624
5241.8 2.9177
5247.1 2.8559
5252.4 2.7888
5257.8 2.7502
5263.1 2.7165
5268.4 2.6694
5273.8 2.6428
5279.2 2.6260
5284.6 2.5876
5290 2.5432
5295.4 2.5422
5300.8 2.5322
5306.2 2.5122
5311.6 2.5010
5317.1 2.5093
5322.5 2.4929
5328 2.4780
5333.5 2.4585
5339 2.4324
5344.5 2.4121
5350 2.3892
5355.5 2.4082
5361.1 2.4333
5366.6 2.4573
5372.2 2.4978
5377.8 2.5288
5383.3 2.5720
5388.9 2.6284
5394.5 2.6658
5400.2 2.6995
5405.8 2.7632
5411.4 2.8196
5417.1 2.8186
5422.8 2.8418
5428.4 2.9165
5434.1 2.9597
5439.8 2.9993
5445.5 3.0142
5451.3 3.0139
5457 2.9905
5462.8 2.9343
5468.5 2.9060
5474.3 2.8821
5480.1 2.8660
5485.9 2.8345
5491.7 2.7974
5497.5 2.7737
5503.3 2.7324
5509.2 2.6876
5515.1 2.6304
5520.9 2.5950
5526.8 2.5706
5532.7 2.5420
5538.6 2.5154
5544.5 2.4846
5550.5 2.4534
5556.4 2.4248
5562.4 2.4265
5568.4 2.4209
5574.4 2.3589
5580.4 2.3293
5586.4 2.3418
5592.4 2.3406
5598.4 2.3569
5604.5 2.3433
5610.6 2.3367
5616.6 2.3516
5622.7 2.3647
5628.8 2.3840
5634.9 2.3818
5641.1 2.3586
5647.2 2.4187
5653.4 2.4690
5659.6 2.5210
5665.7 2.5945
5671.9 2.6279
5678.2 2.6792
5684.4 2.7371
5690.6 2.7544
5696.9 2.7871
5703.1 2.7642
5709.4 2.7085
5715.7 2.6877
5722 2.6492
5728.3 2.6096
5734.7 2.5937
5741 2.5527
5747.4 2.4902
5753.8 2.4641
5760.2 2.3647
5766.6 2.2539
5773 2.2768
5779.4 2.2854
5785.9 2.2583
5792.3 2.2148
5798.8 2.1709
5805.3 2.1396
5811.8 2.0803
5818.4 1.9785
5824.9 1.9497
5831.4 1.9631
5838 1.9172
5844.6 1.8865
5851.2 1.8689
5857.8 1.8157
5864.4 1.7800
5871.1 1.7468
5877.7 1.6533
5884.4 1.6238
5891.1 1.6099
5897.8 1.5659
5904.5 1.5981
5911.2 1.5935
5918 1.5664
5924.7 1.5466
5931.5 1.4817
5938.3 1.4370
5945.1 1.4587
5952 1.4658
5958.8 1.4746
5965.7 1.4397
5972.5 1.4170
5979.4 1.4133
5986.3 1.4341
5993.2 1.4707
6000.2 1.4883
6007.1 1.4595
6014.1 1.4470
6021.1 1.4712
6028.1 1.4646
6035.1 1.4368
6042.1 1.3765
6049.2 1.3166
6056.3 1.3569
6063.3 1.3965
6070.4 1.3872
6077.6 1.3694
6084.7 1.3967
6091.8 1.3921
6099 1.3777
6106.2 1.3267
6113.4 1.2937
6120.6 1.3079
6127.8 1.3027
6135.1 1.2869
6142.4 1.2949
6149.6 1.2795
6157 1.2270
6164.3 1.2368
6171.6 1.2715
6179 1.2561
6186.3 1.2297
6193.7 1.2656
6201.1 1.2732
6208.6 1.2329
6216 1.2219
6223.5 1.2322
6231 1.2319
6238.5 1.2498
6246 1.2751
6253.5 1.2910
6261.1 1.3054
6268.6 1.3303
6276.2 1.3137
6283.8 1.2913
6291.4 1.2924
6299.1 1.3079
6306.8 1.3142
6314.4 1.3208
6322.1 1.3442
6329.9 1.3733
6337.6 1.3198
6345.4 1.2681
6353.1 1.3601
6360.9 1.3870
6368.7 1.3660
6376.6 1.3757
6384.4 1.3796
6392.3 1.4094
6400.2 1.4116
6408.1 1.3508
6416 1.3320
6424 1.3892
6432 1.4089
6439.9 1.4153
6448 1.4451
6456 1.4214
6464 1.4089
6472.1 1.3853
6480.2 1.3252
6488.3 1.2412
6496.4 1.2493
6504.6 1.2978
6512.8 1.2700
6520.9 1.2327
6529.2 1.2593
6537.4 1.2559
6545.6 1.2361
6553.9 1.2266
6562.2 1.2122
6570.5 1.1897
6578.9 1.2187
6587.2 1.2229
6595.6 1.2307
6604 1.2607
6612.4 1.2673
6620.9 1.2627
6629.4 1.2119
6637.8 1.1741
6646.4 1.2141
6654.9 1.2141
6663.4 1.2283
6672 1.2217
6680.6 1.1577
6689.2 1.1489
6697.9 1.1741
6706.5 1.1474
6715.2 1.1460
6723.9 1.1294
6732.7 1.1357
6741.4 1.1667
6750.2 1.1858
6759 1.1511
6767.8 1.1345
6776.7 1.1174
6785.5 1.0994
6794.4 1.1111
6803.4 1.1157
6812.3 1.0735
6821.3 1.0696
6830.2 1.0610
6839.3 1.0442
6848.3 1.0154
6857.3 1.0049
6866.4 1.0142
6875.5 1.0486
6884.7 1.0471
6893.8 1.0281
6903 1.0264
6912.2 1.0356
6921.4 1.0171
6930.7 1.0151
6940 1.0156
6949.3 1.0039
6958.6 0.9631
6967.9 0.9448
6977.3 0.9587
6986.7 0.9573
6996.2 0.9687
7005.6 0.9531
7015.1 0.9143
7024.6 0.9126
7034.1 0.9041
7043.7 0.8772
7053.3 0.8870
7062.9 0.9302
7072.5 0.9055
7082.2 0.8774
7091.9 0.8821
7101.6 0.8706
7111.3 0.8638
7121.1 0.8516
7130.9 0.8396
7140.7 0.8589
7150.6 0.8752
7160.4 0.8643
7170.3 0.8567
7180.3 0.8628
7190.2 0.8389
7200.2 0.8188
7210.2 0.8357
7220.3 0.8577
7230.3 0.8430
7240.4 0.8191
7250.6 0.8126
7260.7 0.7944
7270.9 0.7874
7281.1 0.8149
7291.4 0.8115
7301.6 0.8220
7311.9 0.8437
7322.3 0.8474
7332.6 0.8064
7343 0.8267
7353.4 0.8562
7363.9 0.8677
7374.3 0.8520
7384.8 0.8469
7395.4 0.8713
7405.9 0.9041
7416.5 0.9087
7427.2 0.9023
7437.8 0.9243
7448.5 0.9446
7459.2 0.9299
7470 0.9263
7480.7 0.9612
7491.6 1.0039
7502.4 1.0071
7513.3 1.0207
7524.2 1.0395
7535.1 1.0781
7546.1 1.1001
7557.1 1.1472
7568.1 1.2031
7579.2 1.2253
7590.3 1.2500
7601.4 1.2881
7612.6 1.3342
7623.8 1.4036
7635 1.4722
7646.2 1.5212
7657.5 1.5947
7668.9 1.6882
7680.2 1.7417
7691.6 1.8152
7703.1 1.9211
7714.5 1.9797
7726 2.0510
7737.5 2.1665
7749.1 2.2651
7760.7 2.4050
7772.3 2.5183
7784 2.6287
7795.7 2.7253
7807.5 2.8093
7819.2 2.9397
7831 3.1340
7842.9 3.3196
7854.8 3.5356
7866.7 3.7910
7878.6 4.0530
7890.6 4.3542
7902.7 4.7268
7914.7 5.1208
7926.8 5.5701
7939 6.0713
7951.2 6.5945
7963.4 7.1477
7975.6 7.6625
7987.9 8.1614
8000.2 8.7192
8012.6 9.3003
8025 9.8481
8037.4 10.4316
8049.9 11.1247
8062.4 11.8803
8075 12.6596
8087.6 13.4802
8100.2 14.3354
8112.9 15.2295
8125.6 16.1424
8138.4 17.0222
8151.2 17.8369
8164 18.5261
8176.9 18.9980
8189.8 19.2448
8202.8 19.4042
8215.8 19.4404
8228.8 19.3811
8241.9 19.2170
8255 18.9907
8268.2 18.7534
8281.4 18.5222
8294.6 18.2902
8307.9 18.0356
8321.3 17.7607
8334.7 17.5534
8348.1 17.3575
8361.5 17.1408
8375 16.9843
8388.6 16.8869
8402.2 16.7656
8415.8 16.6545
8429.5 16.5515
8443.2 16.4604
8457 16.3508
8470.8 16.2546
8484.7 16.1482
8498.6 16.0666
8512.6 15.9821
8526.6 15.7619
8540.6 15.4880
8554.7 15.1372
8568.8 14.5949
8583 13.8220
8597.3 12.7207
8611.6 11.5559
8625.9 10.9477
8640.3 11.3642
8654.7 12.4536
8669.2 13.4777
8683.7 14.1364
8698.2 14.5986
8712.9 14.9123
8727.5 15.0900
8742.2 15.2360
8757 15.3806
8771.8 15.5168
8786.7 15.6665
8801.6 15.7736
8816.6 15.9311
8831.6 16.0368
8846.7 16.0554
8861.8 16.0847
8877 16.1193
8892.2 16.0949
8907.5 16.0434
8922.8 15.9597
8938.2 15.9177
8953.6 15.8724
8969.1 15.8220
8984.7 15.7898
9000.3 15.8144
9015.9 15.8816
9031.6 15.9631
9047.4 15.9760
9063.2 16.0197
9079.1 16.1096
9095 16.1352
9111 16.1374
9127 16.1584
9143.1 16.1840
9159.3 16.2016
9175.5 16.1872
9191.8 16.2092
9208.1 16.1925
9224.5 16.1765
9240.9 16.1335
9257.4 16.0537
9274 15.9919
9290.6 15.8925
9307.3 15.6198
9324 15.1250
9340.8 14.5520
9357.7 13.8327
9374.6 13.0000
9391.6 12.1516
9408.6 11.2644
9425.7 10.4885
9442.9 9.8984
9460.1 9.4233
9477.4 9.0005
9494.8 8.6667
9512.2 8.4192
9529.7 8.2102
9547.2 7.9787
9564.9 7.7453
9582.5 7.5085
9600.3 7.3523
9618.1 7.2571
9636 7.1543
9653.9 7.0115
9671.9 6.8498
9690 6.7077
9708.2 6.5420
9726.4 6.3760
9744.7 6.2431
9763 6.1721
9781.4 6.0879
9799.9 5.9599
9818.5 5.8918
9837.1 5.8362
9855.8 5.7995
9874.6 5.7344
9893.4 5.6621
9912.3 5.5473
9931.3 5.4553
9950.4 5.4067
9969.5 5.3418
9988.7 5.2276
10008 5.1628
10027.4 5.0964
10046.8 5.0796
10066.3 4.9988
10085.9 4.8970
10105.6 4.8196
10125.3 4.8188
10145.1 4.7939
10165 4.7986
10185 4.7334
10205 4.6496
10225.1 4.5906
10245.4 4.5652
10265.6 4.5256
10286 4.4861
10306.5 4.4641
10327 4.4609
10347.6 4.4292
10368.3 4.3999
10389.1 4.3254
10409.9 4.3188
10430.9 4.2947
10451.9 4.2742
10473 4.2451
10494.2 4.2139
10515.5 4.1658
10536.9 4.1196
10558.4 4.0791
10579.9 4.0593
10601.5 4.0251
10623.3 3.9902
10645.1 3.9443
10667 3.9131
10689 3.9060
10711.1 3.9121
10733.2 3.8994
10755.5 3.8452
10777.9 3.7817
10800.3 3.7961
10822.9 3.7783
10845.5 3.7070
10868.2 3.6765
10891.1 3.6601
10914 3.6272
10937 3.6150
10960.2 3.6030
10983.4 3.5954
11006.7 3.5901
11030.1 3.6086
11053.6 3.5972
11077.3 3.6028
11101 3.5810
11124.8 3.5727
11148.7 3.5554
11172.7 3.5522
11196.9 3.5305
11221.1 3.5193
11245.5 3.5054
11269.9 3.4582
11294.4 3.4236
11319.1 3.4194
11343.9 3.3586
11368.8 3.3433
11393.7 3.3210
11418.8 3.3047
11444 3.2505
11469.4 3.1804
11494.8 3.1650
11520.3 3.1916
11546 3.1611
11571.8 3.1326
11597.7 3.0749
11623.7 3.0229
11649.8 2.9612
11676 2.9123
11702.4 2.8608
11728.9 2.8142
11755.5 2.7495
11782.2 2.6929
11809 2.6186
11836 2.5444
11863.1 2.4438
11890.3 2.3933
11917.6 2.3179
11945 2.2358
11972.6 2.1472
12000.3 2.0972
12028.2 2.0215
12056.2 1.9209
12084.3 1.7651
12112.5 1.6516
12140.9 1.5618
12169.4 1.4656
12198 1.3599
12226.8 1.2705
12255.7 1.1648
12284.7 1.1162
12313.9 1.1836
12343.2 1.5435
12372.7 2.2322
12402.3 3.1113
12432 3.7859
12461.9 4.1814
12491.9 4.3874
12522.1 4.4350
12552.4 4.2280
12582.9 3.9446
12613.5 3.6811
12644.3 3.6699
12675.2 3.9714
12706.3 4.3965
12737.5 4.8242
12768.8 5.1721
12800.4 5.3122
12832.1 5.2595
12863.9 5.0320
12895.9 4.7139
12928.1 4.3967
12960.4 4.1130
12992.9 3.8830
13025.5 3.7593
13058.3 3.6785
13091.3 3.6421
13124.4 3.5466
13157.7 3.5085
13191.2 3.4883
13224.9 3.4416
13258.7 3.3635
13292.7 3.3152
13326.9 3.2212
13361.2 3.1826
13395.7 3.1457
13430.4 3.1226
13465.3 3.1118
13500.4 3.0759
13535.6 2.9668
13571.1 2.9397
13606.7 2.9639
13642.5 3.0098
13678.5 2.9153
13714.7 2.8069
13751.1 2.7651
13787.6 2.7991
13824.4 2.7244
13861.4 2.6955
13898.5 2.6909
13935.9 2.6238
13973.4 2.5566
14011.2 2.5574
