# Soil optical properties : Light yellowish brown interior dry gravelly loam
# Colums : Wavelength(nm) Reflectance(%) Transmitance(%)
#
300 2.9020
400 2.9020
401 3.1628
402 3.2727
403 3.2619
404 3.2445
405 3.3412
406 3.3919
407 3.4011
408 3.4937
409 3.8165
410 3.5685
411 3.4548
412 3.7550
413 3.9889
414 4.0118
415 4.0232
416 4.0461
417 4.1417
418 4.1357
419 4.1357
420 4.3690
421 4.3164
422 4.3353
423 4.5167
424 4.5896
425 4.5735
426 4.8769
427 4.9687
428 5.1502
429 5.0173
430 5.1552
431 5.5122
432 5.3296
433 5.0895
434 5.4223
435 5.6146
436 5.8380
437 5.6393
438 5.8549
439 5.8549
440 6.0613
441 6.1680
442 6.2389
443 6.2299
444 6.5484
445 6.6154
446 6.8109
447 7.0207
448 7.0967
449 7.1721
450 7.2997
451 7.4942
452 7.7180
453 7.5604
454 7.8543
455 7.9262
456 7.7680
457 7.8625
458 7.8512
459 7.7894
460 7.9329
461 8.2226
462 8.2408
463 8.0864
464 8.1980
465 8.2420
466 8.4576
467 8.4576
468 8.4702
469 8.4344
470 8.6782
471 8.7252
472 8.5627
473 8.7065
474 8.7453
475 9.0419
476 9.2508
477 9.0687
478 9.3063
479 9.3063
480 9.4544
481 9.3982
482 9.5872
483 9.5302
484 9.5019
485 9.7216
486 9.8335
487 10.0610
488 10.1660
489 10.1810
490 10.3530
491 10.4220
492 10.3920
493 10.4530
494 10.6020
495 10.7070
496 10.6300
497 11.0020
498 11.3030
499 11.3760
500 11.5380
501 11.5600
502 11.5430
503 11.4000
504 11.4560
505 11.3950
506 11.9470
507 11.8790
508 11.9830
509 11.7950
510 12.3760
511 12.4630
512 12.6350
513 12.6710
514 12.8300
515 13.0070
516 13.0620
517 13.2040
518 13.4730
519 13.5220
520 13.7390
521 13.7530
522 13.7610
523 13.7220
524 13.7560
525 13.9850
526 14.0700
527 14.0460
528 14.2000
529 14.5120
530 14.6270
531 14.6960
532 14.8010
533 15.0140
534 15.3280
535 15.2820
536 15.4070
537 15.4490
538 15.9390
539 16.0850
540 16.1460
541 16.5040
542 16.5370
543 16.5970
544 16.8200
545 16.9540
546 17.0580
547 17.2020
548 17.6130
549 17.5950
550 17.7320
551 18.0060
552 18.1430
553 18.1990
554 18.5670
555 18.7250
556 18.8580
557 18.9890
558 18.9600
559 18.9840
560 19.4380
561 19.4920
562 19.9650
563 20.0680
564 20.3260
565 20.2160
566 20.7380
567 20.9710
568 21.0940
569 21.3540
570 21.4360
571 21.6430
572 21.5340
573 21.7530
574 22.0640
575 22.1660
576 22.4940
577 22.7050
578 22.6930
579 22.7990
580 23.0970
581 23.2030
582 23.5320
583 23.6550
584 23.6550
585 24.2240
586 24.5600
587 24.4470
588 24.7200
589 24.6790
590 24.6160
591 24.9490
592 25.0030
593 25.0980
594 25.2150
595 24.8960
596 25.5800
597 25.5650
598 25.5320
599 25.5750
600 25.3500
601 25.4660
602 25.8030
603 25.6550
604 25.7370
605 25.8100
606 25.9640
607 26.0360
608 25.8590
609 26.2450
610 26.0270
611 26.3880
612 26.1150
613 26.4370
614 26.4330
615 26.6050
616 26.4710
617 26.2460
618 26.6190
619 26.6510
620 26.7570
621 26.7490
622 26.5680
623 26.9880
624 26.9600
625 27.0190
626 27.2980
627 26.9210
628 26.9910
629 27.2250
630 27.4010
631 27.3940
632 27.4070
633 26.9640
634 27.4070
635 27.5410
636 27.6410
637 27.5340
638 27.0430
639 27.3400
640 27.8520
641 28.1240
642 28.1240
643 27.8890
644 27.4790
645 27.8550
646 27.6800
647 27.6140
648 27.8200
649 28.2970
650 28.3920
651 28.7100
652 28.4270
653 28.4290
654 28.6340
655 28.8060
656 28.8060
657 28.8130
658 28.6050
659 28.7710
660 28.9100
661 29.0130
662 29.0830
663 29.0120
664 29.0110
665 28.9420
666 29.2860
667 29.3920
668 29.6010
669 29.4930
670 29.3170
671 29.2150
672 29.4930
673 29.9090
674 30.1200
675 29.9430
676 29.7020
677 29.9760
678 29.9370
679 30.2140
680 29.8620
681 29.9330
682 30.0710
683 30.1070
684 30.4510
685 30.4150
686 30.4120
687 30.3760
688 30.7290
689 30.5200
690 30.3710
691 30.6200
692 31.0390
693 31.0750
694 30.9360
695 31.3480
696 31.4970
697 31.3980
698 31.3810
699 32.7110
700 31.5820
701 31.5840
702 31.2710
703 31.3560
704 31.5570
705 31.5290
706 31.8960
707 32.0710
708 32.1730
709 31.8970
710 31.8320
711 32.0340
712 31.6850
713 31.8320
714 32.0810
715 32.2850
716 32.3860
717 32.5140
718 32.2520
719 32.1780
720 31.7500
721 31.8490
722 31.9950
723 32.1680
724 32.0490
725 32.0580
726 32.0850
727 32.3680
728 32.3310
729 32.6310
730 32.8050
731 32.7560
732 32.8800
733 32.8540
734 32.8800
735 32.8800
736 33.0560
737 32.7310
738 32.7680
739 32.9300
740 33.1680
741 33.2920
742 33.3920
743 33.2810
744 33.2300
745 33.1930
746 33.2920
747 33.2550
748 33.1420
749 33.1930
750 33.2920
751 33.1550
752 33.4920
753 33.5920
754 33.6820
755 33.6820
756 33.5540
757 33.5540
758 33.4030
759 33.4650
760 33.5400
761 33.7300
762 33.8060
763 33.9830
764 33.8770
765 33.7110
766 33.9000
767 33.9610
768 33.8850
769 33.9010
770 33.9610
771 33.6650
772 33.7860
773 34.0990
774 34.1290
775 34.4840
776 34.4060
777 34.4520
778 34.1830
779 34.3580
780 34.1000
781 34.3740
782 34.6290
783 34.2990
784 34.1760
785 34.3680
786 34.2910
787 34.0780
788 34.3750
789 34.3980
790 34.4750
791 34.2830
792 34.2380
793 34.6510
794 34.5730
795 34.7900
796 34.8890
797 34.7070
798 34.3830
799 34.3830
800 34.3830
804 34.5000
808 34.5580
812 34.7650
816 34.4610
820 34.6620
824 35.0440
828 34.8180
832 35.0400
836 34.8770
840 34.7820
844 34.5800
848 34.7690
852 34.8280
856 34.8280
860 35.0390
864 34.9170
868 34.8680
872 35.0190
876 35.2050
880 35.0690
884 35.1910
888 35.3120
892 35.2260
896 35.1690
900 35.1690
904 35.3550
908 35.2690
912 35.4770
916 35.5820
920 35.7470
924 35.7400
928 35.9640
932 35.9280
936 35.8550
940 35.9640
944 36.0370
948 36.1680
952 36.3350
956 36.3520
960 36.4280
964 36.2530
968 36.6080
972 36.4600
976 36.3500
980 36.0230
984 36.1760
988 37.0410
992 36.6360
996 36.8910
1000 36.9470
1004 36.8540
1008 37.2150
1012 37.3840
1016 37.2900
1020 37.8390
1024 37.8310
1028 37.5470
1032 37.5830
1036 37.5900
1040 37.3270
1044 37.5530
1048 37.5510
1052 37.7530
1056 37.8840
1060 38.1540
1064 37.7580
1068 38.1370
1072 38.4030
1076 38.2430
1080 38.3470
1084 38.3590
1088 38.5310
1092 38.4530
1096 38.4250
1100 38.4420
1104 38.3870
1108 38.3970
1112 38.9530
1116 39.2210
1120 39.3400
1124 39.5700
1128 39.3150
1132 39.9220
1136 39.4350
1140 39.6790
1144 39.2900
1148 39.0920
1152 39.3090
1156 39.5580
1160 39.5720
1164 39.8380
1168 40.1580
1172 40.1980
1176 40.3720
1180 40.2780
1184 40.4000
1188 40.6230
1192 40.8400
1196 40.8400
1200 40.7460
1204 40.7460
1208 40.7110
1212 40.8760
1216 40.8460
1220 40.8990
1224 40.8990
1228 41.3360
1232 41.3150
1236 41.4620
1240 41.5670
1244 41.6520
1248 41.8690
1252 41.7840
1256 41.7090
1260 41.8020
1264 41.5820
1268 41.7510
1272 41.7610
1276 41.5500
1280 41.5290
1284 41.5900
1288 41.5070
1292 41.8370
1296 42.0190
1300 41.6900
1304 41.4840
1308 41.6940
1312 41.8280
1316 42.0540
1320 42.1380
1324 42.2220
1328 41.9700
1332 42.1960
1336 42.0300
1340 42.4570
1344 43.1100
1348 42.9180
1352 42.9140
1356 43.2070
1360 42.9230
1364 42.9130
1368 42.9170
1372 43.1120
1376 42.3950
1380 41.8960
1384 42.1290
1388 41.5500
1392 41.0430
1396 40.5880
1400 40.2310
1404 39.7530
1408 39.5630
1412 39.7220
1416 40.3760
1420 40.8750
1424 41.1040
1428 41.2920
1432 41.4470
1436 41.5070
1440 41.6060
1444 41.8420
1448 41.7210
1452 42.1130
1456 42.3350
1460 42.4830
1464 42.6580
1468 42.6150
1472 42.6650
1476 42.9820
1480 43.4430
1484 43.7680
1488 43.5810
1492 43.7090
1496 43.1800
1500 43.0060
1504 43.3840
1508 43.5690
1512 43.4380
1516 43.4820
1520 43.5800
1524 43.7640
1528 44.1260
1532 43.9530
1536 44.2190
1540 44.0850
1544 44.4000
1548 44.6300
1552 44.5370
1556 44.0910
1560 44.1310
1564 44.4000
1568 44.2630
1572 43.7320
1576 44.1350
1580 44.9550
1584 45.0420
1588 44.8540
1592 44.7250
1596 44.8110
1600 44.7250
1604 44.3190
1608 44.3630
1612 44.9100
1616 44.9550
1620 45.0860
1624 45.1800
1628 45.3580
1632 45.2210
1636 45.2210
1640 44.9950
1644 45.1330
1648 45.6380
1652 45.9160
1656 45.6870
1660 45.2730
1664 45.2230
1668 45.4100
1672 45.5500
1676 45.7310
1680 45.6870
1684 45.9660
1688 45.4140
1692 45.4150
1696 45.5040
1700 45.5970
1704 46.1030
1708 45.8710
1712 46.1480
1716 46.5690
1720 46.1010
1724 45.8170
1728 45.6870
1732 45.9190
1736 45.9650
1740 45.8670
1744 45.9130
1748 46.0510
1752 45.8650
1756 45.6800
1760 45.6800
1764 45.7270
1768 45.6810
1772 45.6810
1776 45.6800
1780 45.6790
1784 45.6340
1788 45.7250
1792 45.8180
1796 45.8180
1800 45.8650
1804 45.9110
1808 45.9570
1812 46.1430
1816 45.8180
1820 45.8640
1824 45.6790
1828 45.3500
1832 44.8360
1836 44.7000
1840 45.0160
1844 45.3400
1848 45.8580
1852 46.3720
1856 46.4680
1860 45.6150
1864 44.2410
1868 42.9400
1872 42.4770
1876 42.2510
1880 41.5100
1884 40.7420
1888 39.6080
1892 38.2800
1896 37.5530
1900 36.2850
1904 35.4110
1908 35.2560
1912 35.3330
1916 35.2940
1920 35.8380
1924 36.5760
1928 37.3840
1932 38.0610
1936 38.9090
1940 39.0940
1944 39.3930
1948 39.7880
1952 40.0320
1956 40.0430
1960 40.2330
1964 40.5610
1968 41.4100
1972 41.6880
1976 41.8270
1980 42.1070
1984 42.3360
1988 42.5280
1992 42.5900
1996 42.8740
2000 43.0250
2004 43.3480
2008 43.6310
2012 44.2080
2016 44.5900
2020 44.9710
2024 45.0160
2028 45.0180
2032 45.1610
2036 45.3050
2040 45.2580
2044 45.5960
2048 45.4010
2052 45.7890
2056 45.9350
2060 46.1790
2064 45.9840
2068 45.7900
2072 46.0340
2076 46.1310
2079.5 46.1310
2080.3 46.0970
2081.2 46.0840
2082 46.1480
2082.8 46.1400
2083.7 46.1580
2084.5 46.1680
2085.3 46.1670
2086.2 46.1720
2087 46.1730
2087.9 46.1730
2088.7 46.1710
2089.5 46.1640
2090.4 46.1570
2091.2 46.1540
2092.1 46.1620
2092.9 46.1860
2093.8 46.2240
2094.6 46.2680
2095.5 46.3060
2096.3 46.3260
2097.1 46.3210
2098 46.2890
2098.8 46.2380
2099.7 46.1790
2100.5 46.1230
2101.4 46.0790
2102.3 46.0510
2103.1 46.0400
2104 46.0430
2104.8 46.0570
2105.7 46.0780
2106.5 46.1010
2107.4 46.1200
2108.2 46.1310
2109.1 46.1290
2110 46.1160
2110.8 46.0970
2111.7 46.0770
2112.5 46.0660
2113.4 46.0690
2114.3 46.0840
2115.1 46.1080
2116 46.1310
2116.8 46.1430
2117.7 46.1390
2118.6 46.1200
2119.4 46.0910
2120.3 46.0570
2121.2 46.0290
2122 46.0080
2122.9 45.9960
2123.8 45.9890
2124.7 45.9850
2125.5 45.9810
2126.4 45.9730
2127.3 45.9650
2128.1 45.9580
2129 45.9570
2129.9 45.9630
2130.8 45.9800
2131.6 46.0050
2132.5 46.0350
2133.4 46.0650
2134.3 46.0900
2135.2 46.1080
2136 46.1180
2136.9 46.1210
2137.8 46.1210
2138.7 46.1200
2139.6 46.1170
2140.4 46.1110
2141.3 46.0980
2142.2 46.0750
2143.1 46.0420
2144 46.0000
2144.9 45.9520
2145.8 45.9040
2146.6 45.8620
2147.5 45.8300
2148.4 45.8110
2149.3 45.8040
2150.2 45.8080
2151.1 45.8180
2152 45.8280
2152.9 45.8340
2153.8 45.8290
2154.7 45.8120
2155.6 45.7820
2156.5 45.7430
2157.4 45.6980
2158.3 45.6540
2159.2 45.6160
2160.1 45.5860
2161 45.5640
2161.9 45.5470
2162.8 45.5300
2163.7 45.5130
2164.6 45.4910
2165.5 45.4650
2166.4 45.4370
2167.3 45.4090
2168.2 45.3840
2169.1 45.3630
2170 45.3490
2170.9 45.3420
2171.8 45.3400
2172.7 45.3400
2173.6 45.3370
2174.6 45.3270
2175.5 45.3070
2176.4 45.2760
2177.3 45.2330
2178.2 45.1830
2179.1 45.1320
2180 45.0830
2181 45.0370
2181.9 44.9960
2182.8 44.9570
2183.7 44.9180
2184.6 44.8750
2185.6 44.8300
2186.5 44.7810
2187.4 44.7300
2188.3 44.6780
2189.3 44.6250
2190.2 44.5700
2191.1 44.5140
2192 44.4560
2193 44.3990
2193.9 44.3450
2194.8 44.2980
2195.7 44.2570
2196.7 44.2220
2197.6 44.1870
2198.5 44.1450
2199.5 44.0880
2200.4 44.0090
2201.3 43.9050
2202.3 43.7760
2203.2 43.6270
2204.1 43.4690
2205.1 43.3120
2206 43.1730
2207 43.0630
2207.9 42.9930
2208.8 42.9640
2209.8 42.9720
2210.7 43.0050
2211.7 43.0460
2212.6 43.0790
2213.6 43.0890
2214.5 43.0690
2215.5 43.0180
2216.4 42.9420
2217.3 42.8530
2218.3 42.7670
2219.2 42.6970
2220.2 42.6550
2221.1 42.6490
2222.1 42.6800
2223.1 42.7430
2224 42.8310
2225 42.9340
2225.9 43.0410
2226.9 43.1430
2227.8 43.2330
2228.8 43.3050
2229.7 43.3560
2230.7 43.3850
2231.7 43.3920
2232.6 43.3780
2233.6 43.3460
2234.5 43.3000
2235.5 43.2450
2236.5 43.1880
2237.4 43.1330
2238.4 43.0870
2239.4 43.0530
2240.3 43.0290
2241.3 43.0140
2242.3 43.0030
2243.3 42.9900
2244.2 42.9710
2245.2 42.9450
2246.2 42.9100
2247.1 42.8710
2248.1 42.8290
2249.1 42.7860
2250.1 42.7450
2251 42.7080
2252 42.6770
2253 42.6530
2254 42.6390
2255 42.6350
2255.9 42.6400
2256.9 42.6530
2257.9 42.6720
2258.9 42.6970
2259.9 42.7270
2260.9 42.7610
2261.8 42.7960
2262.8 42.8290
2263.8 42.8580
2264.8 42.8790
2265.8 42.8910
2266.8 42.8950
2267.8 42.8910
2268.8 42.8820
2269.8 42.8680
2270.8 42.8470
2271.8 42.8220
2272.8 42.7920
2273.8 42.7600
2274.7 42.7280
2275.7 42.6960
2276.7 42.6640
2277.7 42.6280
2278.7 42.5850
2279.8 42.5300
2280.8 42.4640
2281.8 42.3910
2282.8 42.3150
2283.8 42.2410
2284.8 42.1730
2285.8 42.1100
2286.8 42.0520
2287.8 41.9970
2288.8 41.9410
2289.8 41.8860
2290.8 41.8300
2291.8 41.7740
2292.9 41.7190
2293.9 41.6650
2294.9 41.6100
2295.9 41.5550
2296.9 41.5010
2297.9 41.4500
2299 41.4040
2300 41.3630
2301 41.3240
2302 41.2840
2303 41.2390
2304.1 41.1870
2305.1 41.1290
2306.1 41.0700
2307.1 41.0140
2308.2 40.9650
2309.2 40.9230
2310.2 40.8850
2311.3 40.8470
2312.3 40.8010
2313.3 40.7440
2314.4 40.6740
2315.4 40.5910
2316.4 40.4970
2317.5 40.3970
2318.5 40.2950
2319.5 40.1980
2320.6 40.1110
2321.6 40.0370
2322.6 39.9780
2323.7 39.9280
2324.7 39.8800
2325.8 39.8260
2326.8 39.7590
2327.9 39.6760
2328.9 39.5820
2330 39.4850
2331 39.3910
2332.1 39.3080
2333.1 39.2400
2334.2 39.1840
2335.2 39.1390
2336.3 39.1030
2337.3 39.0720
2338.4 39.0480
2339.4 39.0290
2340.5 39.0130
2341.5 39.0000
2342.6 38.9870
2343.6 38.9760
2344.7 38.9660
2345.8 38.9610
2346.8 38.9630
2347.9 38.9720
2349 38.9890
2350 39.0140
2351.1 39.0450
2352.2 39.0820
2353.2 39.1250
2354.3 39.1720
2355.4 39.2190
2356.4 39.2620
2357.5 39.2950
2358.6 39.3130
2359.7 39.3160
2360.7 39.3080
2361.8 39.2940
2362.9 39.2820
2364 39.2760
2365 39.2790
2366.1 39.2900
2367.2 39.3050
2368.3 39.3180
2369.4 39.3210
2370.4 39.3100
2371.5 39.2850
2372.6 39.2480
2373.7 39.2030
2374.8 39.1580
2375.9 39.1170
2377 39.0830
2378.1 39.0560
2379.1 39.0340
2380.2 39.0160
2381.3 39.0000
2382.4 38.9840
2383.5 38.9670
2384.6 38.9500
2385.7 38.9300
2386.8 38.9060
2387.9 38.8780
2389 38.8460
2390.1 38.8110
2391.2 38.7750
2392.3 38.7370
2393.4 38.6960
2394.5 38.6510
2395.6 38.5990
2396.7 38.5430
2397.9 38.4850
2399 38.4320
2400.1 38.3890
2401.2 38.3600
2402.3 38.3440
2403.4 38.3360
2404.5 38.3270
2405.6 38.3100
2406.8 38.2780
2407.9 38.2320
2409 38.1740
2410.1 38.1140
2411.2 38.0570
2412.4 38.0080
2413.5 37.9660
2414.6 37.9290
2415.7 37.8900
2416.9 37.8460
2418 37.7950
2419.1 37.7380
2420.2 37.6810
2421.4 37.6250
2422.5 37.5730
2423.6 37.5240
2424.8 37.4750
2425.9 37.4200
2427 37.3580
2428.2 37.2890
2429.3 37.2140
2430.5 37.1380
2431.6 37.0670
2432.7 37.0030
2433.9 36.9480
2435 36.9000
2436.2 36.8560
2437.3 36.8120
2438.5 36.7680
2439.6 36.7210
2440.8 36.6720
2441.9 36.6220
2443.1 36.5740
2444.2 36.5280
2445.4 36.4840
2446.5 36.4440
2447.7 36.4070
2448.8 36.3750
2450 36.3470
2451.1 36.3240
2452.3 36.3040
2453.5 36.2850
2454.6 36.2630
2455.8 36.2360
2456.9 36.2030
2458.1 36.1640
2459.3 36.1210
2460.4 36.0770
2461.6 36.0330
2462.8 35.9890
2464 35.9440
2465.1 35.8940
2466.3 35.8400
2467.5 35.7800
2468.6 35.7170
2469.8 35.6520
2471 35.5880
2472.2 35.5250
2473.4 35.4640
2474.5 35.4010
2475.7 35.3370
2476.9 35.2690
2478.1 35.1960
2479.3 35.1200
2480.5 35.0430
2481.6 34.9700
2482.8 34.9010
2484 34.8390
2485.2 34.7810
2486.4 34.7270
2487.6 34.6720
2488.8 34.6170
2490 34.5600
2491.2 34.5030
2492.4 34.4480
2493.6 34.3960
2494.8 34.3470
2496 34.2990
2497.2 34.2520
2498.4 34.2030
2499.6 34.1540
2500.8 34.1040
2502 34.0550
2503.2 34.0070
2504.4 33.9620
2505.6 33.9210
2506.8 33.8820
2508.1 33.8440
2509.3 33.8070
2510.5 33.7670
2511.7 33.7230
2512.9 33.6750
2514.1 33.6230
2515.4 33.5680
2516.6 33.5150
2517.8 33.4650
2519 33.4200
2520.2 33.3780
2521.5 33.3370
2522.7 33.2920
2523.9 33.2420
2525.2 33.1820
2526.4 33.1130
2527.6 33.0350
2528.9 32.9530
2530.1 32.8730
2531.3 32.8010
2532.6 32.7410
2533.8 32.6980
2535 32.6700
2536.3 32.6530
2537.5 32.6410
2538.8 32.6300
2540 32.6170
2541.3 32.6030
2542.5 32.5920
2543.7 32.5860
2545 32.5880
2546.2 32.6010
2547.5 32.6290
2548.7 32.6740
2550 32.7390
2551.3 32.8200
2552.5 32.9030
2553.8 32.9670
2555 32.9840
2556.3 32.9360
2557.5 32.8210
2558.8 32.6610
2560.1 32.4950
2561.3 32.3660
2562.6 32.3060
2563.9 32.3210
2565.1 32.3940
2566.4 32.4880
2567.7 32.5640
2569 32.6000
2570.2 32.5950
2571.5 32.5650
2572.8 32.5340
2574.1 32.5170
2575.3 32.5130
2576.6 32.5050
2577.9 32.4720
2579.2 32.4060
2580.5 32.3130
2581.7 32.2210
2583 32.1570
2584.3 32.1350
2585.6 32.1410
2586.9 32.1370
2588.2 32.0750
2589.5 31.9290
2590.8 31.7120
2592.1 31.4780
2593.4 31.3020
2594.7 31.2470
2596 31.3320
2597.3 31.5190
2598.6 31.7300
2599.9 31.8810
2601.2 31.9180
2602.5 31.8450
2603.8 31.7120
2605.1 31.5940
2606.4 31.5530
2607.7 31.6030
2609 31.7130
2610.3 31.8200
2611.7 31.8610
2613 31.8010
2614.3 31.6530
2615.6 31.4650
2616.9 31.2990
2618.3 31.2050
2619.6 31.1920
2620.9 31.2340
2622.2 31.2790
2623.6 31.2730
2624.9 31.1850
2626.2 31.0250
2627.5 30.8340
2628.9 30.6690
2630.2 30.5830
2631.5 30.6000
2632.9 30.7090
2634.2 30.8720
2635.6 31.0330
2636.9 31.1450
2638.2 31.1760
2639.6 31.1220
2640.9 30.9960
2642.3 30.8240
2643.6 30.6290
2645 30.4270
2646.3 30.2250
2647.7 30.0240
2649 29.8230
2650.4 29.6270
2651.7 29.4410
2653.1 29.2700
2654.5 29.1100
2655.8 28.9440
2657.2 28.7420
2658.5 28.4710
2659.9 28.1050
2661.3 27.6420
2662.6 27.1060
2664 26.5440
2665.4 26.0150
2666.7 25.5670
2668.1 25.2250
2669.5 24.9810
2670.9 24.8020
2672.2 24.6390
2673.6 24.4480
2675 24.2020
2676.4 23.8950
2677.8 23.5320
2679.1 23.1260
2680.5 22.6800
2681.9 22.1840
2683.3 21.6170
2684.7 20.9520
2686.1 20.1700
2687.5 19.2640
2688.9 18.2430
2690.3 17.1330
2691.7 15.9700
2693.1 14.7940
2694.5 13.6390
2695.9 12.5340
2697.3 11.4980
2698.7 10.5490
2700.1 9.7011
2701.5 8.9709
2702.9 8.3738
2704.3 7.9214
2705.7 7.6159
2707.1 7.4458
2708.5 7.3847
2710 7.3938
2711.4 7.4275
2712.8 7.4402
2714.2 7.3962
2715.6 7.2759
2717.1 7.0786
2718.5 6.8210
2719.9 6.5329
2721.3 6.2461
2722.8 5.9861
2724.2 5.7659
2725.6 5.5835
2727.1 5.4245
2728.5 5.2700
2729.9 5.1042
2731.4 4.9189
2732.8 4.7173
2734.3 4.5105
2735.7 4.3140
2737.1 4.1418
2738.6 4.0024
2740 3.8957
2741.5 3.8152
2742.9 3.7473
2744.4 3.6794
2745.8 3.6006
2747.3 3.5049
2748.8 3.3943
2750.2 3.2734
2751.7 3.1509
2753.1 3.0347
2754.6 2.9297
2756.1 2.8381
2757.5 2.7607
2759 2.6973
2760.5 2.6489
2761.9 2.6184
2763.4 2.6079
2764.9 2.6201
2766.4 2.6538
2767.8 2.7041
2769.3 2.7644
2770.8 2.8259
2772.3 2.8806
2773.8 2.9226
2775.2 2.9487
2776.7 2.9587
2778.2 2.9546
2779.7 2.9385
2781.2 2.9141
2782.7 2.8855
2784.2 2.8574
2785.7 2.8340
2787.2 2.8198
2788.7 2.8176
2790.2 2.8281
2791.7 2.8501
2793.2 2.8789
2794.7 2.9092
2796.2 2.9353
2797.7 2.9529
2799.2 2.9590
2800.7 2.9538
2802.2 2.9382
2803.8 2.9143
2805.3 2.8845
2806.8 2.8513
2808.3 2.8171
2809.8 2.7847
2811.4 2.7563
2812.9 2.7351
2814.4 2.7224
2815.9 2.7183
2817.5 2.7224
2819 2.7322
2820.5 2.7451
2822.1 2.7593
2823.6 2.7742
2825.2 2.7900
2826.7 2.8093
2828.2 2.8335
2829.8 2.8633
2831.3 2.8992
2832.9 2.9394
2834.4 2.9817
2836 3.0244
2837.5 3.0657
2839.1 3.1052
2840.6 3.1423
2842.2 3.1775
2843.7 3.2097
2845.3 3.2383
2846.9 3.2622
2848.4 3.2808
2850 3.2947
2851.6 3.3054
2853.1 3.3152
2854.7 3.3276
2856.3 3.3445
2857.9 3.3660
2859.4 3.3911
2861 3.4165
2862.6 3.4387
2864.2 3.4546
2865.8 3.4629
2867.3 3.4639
2868.9 3.4597
2870.5 3.4534
2872.1 3.4463
2873.7 3.4399
2875.3 3.4333
2876.9 3.4267
2878.5 3.4184
2880.1 3.4089
2881.7 3.3987
2883.3 3.3894
2884.9 3.3823
2886.5 3.3769
2888.1 3.3733
2889.7 3.3694
2891.3 3.3633
2892.9 3.3555
2894.6 3.3455
2896.2 3.3354
2897.8 3.3269
2899.4 3.3220
2901 3.3203
2902.7 3.3210
2904.3 3.3227
2905.9 3.3232
2907.5 3.3205
2909.2 3.3147
2910.8 3.3059
2912.4 3.2954
2914.1 3.2854
2915.7 3.2776
2917.4 3.2729
2919 3.2715
2920.7 3.2712
2922.3 3.2698
2923.9 3.2644
2925.6 3.2532
2927.2 3.2361
2928.9 3.2151
2930.6 3.1941
2932.2 3.1782
2933.9 3.1704
2935.5 3.1726
2937.2 3.1829
2938.9 3.1975
2940.5 3.2119
2942.2 3.2214
2943.9 3.2244
2945.5 3.2207
2947.2 3.2131
2948.9 3.2048
2950.6 3.1985
2952.3 3.1965
2953.9 3.1992
2955.6 3.2060
2957.3 3.2163
2959 3.2283
2960.7 3.2410
2962.4 3.2544
2964.1 3.2690
2965.8 3.2854
2967.5 3.3035
2969.2 3.3235
2970.9 3.3440
2972.6 3.3633
2974.3 3.3804
2976 3.3938
2977.7 3.4033
2979.4 3.4101
2981.1 3.4163
2982.8 3.4224
2984.5 3.4297
2986.3 3.4382
2988 3.4475
2989.7 3.4573
2991.4 3.4678
2993.2 3.4795
2994.9 3.4932
2996.6 3.5107
2998.4 3.5320
3000.1 3.5571
3001.8 3.5852
3003.6 3.6140
3005.3 3.6421
3007 3.6667
3008.8 3.6863
3010.5 3.6997
3012.3 3.7078
3014 3.7119
3015.8 3.7158
3017.6 3.7217
3019.3 3.7319
3021.1 3.7461
3022.8 3.7629
3024.6 3.7800
3026.4 3.7949
3028.1 3.8074
3029.9 3.8181
3031.7 3.8284
3033.4 3.8401
3035.2 3.8540
3037 3.8701
3038.8 3.8865
3040.6 3.9011
3042.3 3.9128
3044.1 3.9202
3045.9 3.9226
3047.7 3.9214
3049.5 3.9184
3051.3 3.9160
3053.1 3.9170
3054.9 3.9238
3056.7 3.9380
3058.5 3.9590
3060.3 3.9846
3062.1 4.0124
3063.9 4.0386
3065.7 4.0600
3067.5 4.0769
3069.4 4.0893
3071.2 4.1006
3073 4.1133
3074.8 4.1296
3076.6 4.1511
3078.5 4.1770
3080.3 4.2058
3082.1 4.2349
3084 4.2634
3085.8 4.2900
3087.6 4.3157
3089.5 4.3415
3091.3 4.3691
3093.2 4.4001
3095 4.4348
3096.9 4.4722
3098.7 4.5110
3100.6 4.5498
3102.4 4.5871
3104.3 4.6218
3106.1 4.6540
3108 4.6853
3109.9 4.7161
3111.7 4.7488
3113.6 4.7832
3115.5 4.8203
3117.4 4.8586
3119.2 4.8979
3121.1 4.9363
3123 4.9731
3124.9 5.0093
3126.8 5.0456
3128.6 5.0847
3130.5 5.1289
3132.4 5.1789
3134.3 5.2353
3136.2 5.2966
3138.1 5.3601
3140 5.4226
3141.9 5.4817
3143.8 5.5361
3145.7 5.5854
3147.6 5.6313
3149.5 5.6760
3151.5 5.7219
3153.4 5.7705
3155.3 5.8225
3157.2 5.8772
3159.1 5.9341
3161.1 5.9914
3163 6.0478
3164.9 6.1020
3166.9 6.1538
3168.8 6.2024
3170.7 6.2493
3172.7 6.2959
3174.6 6.3445
3176.6 6.3972
3178.5 6.4553
3180.5 6.5190
3182.4 6.5862
3184.4 6.6545
3186.3 6.7214
3188.3 6.7844
3190.2 6.8430
3192.2 6.8979
3194.2 6.9514
3196.1 7.0061
3198.1 7.0635
3200.1 7.1252
3202.1 7.1907
3204 7.2593
3206 7.3288
3208 7.3982
3210 7.4660
3212 7.5327
3214 7.5974
3216 7.6614
3218 7.7239
3220 7.7844
3222 7.8425
3224 7.8982
3226 7.9526
3228 8.0063
3230 8.0622
3232 8.1213
3234 8.1843
3236.1 8.2514
3238.1 8.3208
3240.1 8.3906
3242.1 8.4592
3244.2 8.5261
3246.2 8.5908
3248.2 8.6553
3250.3 8.7214
3252.3 8.7912
3254.3 8.8652
3256.4 8.9428
3258.4 9.0219
3260.5 9.1001
3262.5 9.1743
3264.6 9.2429
3266.6 9.3066
3268.7 9.3669
3270.8 9.4275
3272.8 9.4907
3274.9 9.5588
3277 9.6325
3279 9.7109
3281.1 9.7917
3283.2 9.8723
3285.3 9.9507
3287.4 10.0250
3289.4 10.0960
3291.5 10.1620
3293.6 10.2260
3295.7 10.2890
3297.8 10.3500
3299.9 10.4120
3302 10.4740
3304.1 10.5380
3306.2 10.6040
3308.3 10.6730
3310.4 10.7430
3312.6 10.8130
3314.7 10.8800
3316.8 10.9450
3318.9 11.0050
3321 11.0620
3323.2 11.1130
3325.3 11.1590
3327.4 11.1940
3329.6 11.2120
3331.7 11.2060
3333.9 11.1700
3336 11.1020
3338.2 11.0060
3340.3 10.8920
3342.5 10.7720
3344.6 10.6650
3346.8 10.5830
3348.9 10.5370
3351.1 10.5310
3353.3 10.5620
3355.4 10.6250
3357.6 10.7090
3359.8 10.8060
3362 10.9060
3364.1 11.0000
3366.3 11.0820
3368.5 11.1500
3370.7 11.2040
3372.9 11.2470
3375.1 11.2830
3377.3 11.3210
3379.5 11.3660
3381.7 11.4220
3383.9 11.4900
3386.1 11.5660
3388.3 11.6460
3390.6 11.7230
3392.8 11.7920
3395 11.8500
3397.2 11.8970
3399.4 11.9340
3401.7 11.9650
3403.9 11.9930
3406.1 12.0210
3408.4 12.0500
3410.6 12.0820
3412.9 12.1180
3415.1 12.1610
3417.4 12.2120
3419.6 12.2730
3421.9 12.3460
3424.1 12.4320
3426.4 12.5290
3428.7 12.6360
3430.9 12.7480
3433.2 12.8610
3435.5 12.9700
3437.8 13.0730
3440 13.1670
3442.3 13.2500
3444.6 13.3230
3446.9 13.3860
3449.2 13.4380
3451.5 13.4770
3453.8 13.5000
3456.1 13.4980
3458.4 13.4680
3460.7 13.4030
3463 13.3040
3465.3 13.1750
3467.7 13.0310
3470 12.8880
3472.3 12.7670
3474.6 12.6840
3477 12.6510
3479.3 12.6720
3481.6 12.7420
3484 12.8510
3486.3 12.9880
3488.7 13.1380
3491 13.2920
3493.4 13.4450
3495.7 13.5930
3498.1 13.7400
3500.4 13.8910
3502.8 14.0530
3505.2 14.2360
3507.5 14.4470
3509.9 14.6910
3512.3 14.9710
3514.7 15.2860
3517.1 15.6310
3519.5 15.9980
3521.8 16.3760
3524.2 16.7530
3526.6 17.1180
3529 17.4600
3531.4 17.7750
3533.8 18.0600
3536.3 18.3170
3538.7 18.5500
3541.1 18.7630
3543.5 18.9590
3545.9 19.1420
3548.4 19.3130
3550.8 19.4740
3553.2 19.6240
3555.7 19.7660
3558.1 19.8980
3560.5 20.0200
3563 20.1340
3565.4 20.2420
3567.9 20.3480
3570.4 20.4560
3572.8 20.5730
3575.3 20.7020
3577.7 20.8420
3580.2 20.9900
3582.7 21.1400
3585.2 21.2860
3587.6 21.4230
3590.1 21.5480
3592.6 21.6640
3595.1 21.7740
3597.6 21.8820
3600.1 21.9910
3602.6 22.1010
3605.1 22.2090
3607.6 22.3140
3610.1 22.4150
3612.7 22.5100
3615.2 22.6010
3617.7 22.6910
3620.2 22.7810
3622.7 22.8750
3625.3 22.9700
3627.8 23.0680
3630.4 23.1670
3632.9 23.2660
3635.5 23.3630
3638 23.4570
3640.6 23.5460
3643.1 23.6290
3645.7 23.7060
3648.2 23.7780
3650.8 23.8460
3653.4 23.9140
3656 23.9860
3658.5 24.0640
3661.1 24.1490
3663.7 24.2390
3666.3 24.3310
3668.9 24.4210
3671.5 24.5040
3674.1 24.5800
3676.7 24.6480
3679.3 24.7100
3681.9 24.7680
3684.5 24.8250
3687.2 24.8820
3689.8 24.9420
3692.4 25.0020
3695 25.0630
3697.7 25.1250
3700.3 25.1860
3703 25.2480
3705.6 25.3090
3708.3 25.3710
3710.9 25.4320
3713.6 25.4940
3716.2 25.5580
3718.9 25.6220
3721.6 25.6880
3724.2 25.7530
3726.9 25.8160
3729.6 25.8740
3732.3 25.9240
3735 25.9650
3737.7 25.9970
3740.4 26.0200
3743.1 26.0380
3745.8 26.0540
3748.5 26.0710
3751.2 26.0930
3753.9 26.1230
3756.6 26.1580
3759.4 26.1970
3762.1 26.2350
3764.8 26.2670
3767.6 26.2900
3770.3 26.2990
3773 26.2940
3775.8 26.2710
3778.5 26.2300
3781.3 26.1670
3784.1 26.0780
3786.8 25.9570
3789.6 25.8010
3792.4 25.6070
3795.1 25.3790
3797.9 25.1220
3800.7 24.8450
3803.5 24.5560
3806.3 24.2630
3809.1 23.9700
3811.9 23.6800
3814.7 23.3910
3817.5 23.1030
3820.3 22.8120
3823.1 22.5220
3825.9 22.2320
3828.8 21.9480
3831.6 21.6770
3834.4 21.4260
3837.3 21.2010
3840.1 21.0060
3843 20.8440
3845.8 20.7120
3848.7 20.6080
3851.5 20.5280
3854.4 20.4670
3857.3 20.4190
3860.1 20.3790
3863 20.3450
3865.9 20.3130
3868.8 20.2840
3871.7 20.2580
3874.6 20.2350
3877.5 20.2160
3880.4 20.1990
3883.3 20.1820
3886.2 20.1620
3889.1 20.1350
3892 20.1010
3894.9 20.0570
3897.9 20.0040
3900.8 19.9430
3903.7 19.8740
3906.7 19.7980
3909.6 19.7130
3912.6 19.6230
3915.5 19.5290
3918.5 19.4300
3921.4 19.3260
3924.4 19.2080
3927.4 19.0620
3930.4 18.8690
3933.3 18.6100
3936.3 18.2700
3939.3 17.8430
3942.3 17.3370
3945.3 16.7720
3948.3 16.1790
3951.3 15.5920
3954.4 15.0410
3957.4 14.5490
3960.4 14.1290
3963.4 13.7840
3966.5 13.5100
3969.5 13.3020
3972.5 13.1590
3975.6 13.0820
3978.6 13.0780
3981.7 13.1590
3984.7 13.3350
3987.8 13.6170
3990.9 14.0060
3994 14.4980
3997 15.0810
4000.1 15.7360
4003.2 16.4400
4006.3 17.1680
4009.4 17.8960
4012.5 18.6040
4015.6 19.2770
4018.7 19.9110
4021.8 20.5070
4025 21.0720
4028.1 21.6170
4031.2 22.1500
4034.4 22.6750
4037.5 23.1920
4040.6 23.6920
4043.8 24.1640
4047 24.5960
4050.1 24.9780
4053.3 25.3050
4056.5 25.5770
4059.6 25.7990
4062.8 25.9810
4066 26.1330
4069.2 26.2640
4072.4 26.3810
4075.6 26.4880
4078.8 26.5880
4082 26.6820
4085.2 26.7720
4088.4 26.8550
4091.7 26.9320
4094.9 27.0010
4098.1 27.0610
4101.4 27.1120
4104.6 27.1530
4107.9 27.1880
4111.1 27.2180
4114.4 27.2460
4117.7 27.2710
4120.9 27.2960
4124.2 27.3180
4127.5 27.3340
4130.8 27.3450
4134.1 27.3480
4137.4 27.3440
4140.7 27.3350
4144 27.3230
4147.3 27.3090
4150.6 27.2930
4154 27.2770
4157.3 27.2570
4160.6 27.2350
4164 27.2070
4167.3 27.1750
4170.7 27.1380
4174 27.0980
4177.4 27.0550
4180.8 27.0110
4184.1 26.9680
4187.5 26.9240
4190.9 26.8800
4194.3 26.8310
4197.7 26.7750
4201.1 26.7060
4204.5 26.6210
4207.9 26.5190
4211.3 26.4010
4214.8 26.2700
4218.2 26.1370
4221.6 26.0070
4225.1 25.8890
4228.5 25.7910
4232 25.7150
4235.4 25.6600
4238.9 25.6210
4242.4 25.5850
4245.8 25.5390
4249.3 25.4690
4252.8 25.3680
4256.3 25.2350
4259.8 25.0810
4263.3 24.9230
4266.8 24.7810
4270.3 24.6730
4273.8 24.6070
4277.4 24.5840
4280.9 24.5950
4284.4 24.6290
4288 24.6710
4291.5 24.7120
4295.1 24.7430
4298.6 24.7630
4302.2 24.7710
4305.8 24.7670
4309.4 24.7530
4312.9 24.7320
4316.5 24.7040
4320.1 24.6730
4323.7 24.6390
4327.3 24.6040
4331 24.5670
4334.6 24.5270
4338.2 24.4820
4341.8 24.4320
4345.5 24.3760
4349.1 24.3160
4352.8 24.2540
4356.4 24.1910
4360.1 24.1250
4363.8 24.0560
4367.4 23.9810
4371.1 23.8980
4374.8 23.8060
4378.5 23.7070
4382.2 23.6030
4385.9 23.4960
4389.6 23.3910
4393.4 23.2890
4397.1 23.1890
4400.8 23.0930
4404.5 22.9980
4408.3 22.9040
4412 22.8120
4415.8 22.7200
4419.6 22.6290
4423.3 22.5410
4427.1 22.4550
4430.9 22.3710
4434.7 22.2890
4438.5 22.2080
4442.3 22.1250
4446.1 22.0400
4449.9 21.9540
4453.7 21.8660
4457.6 21.7780
4461.4 21.6950
4465.2 21.6170
4469.1 21.5460
4473 21.4840
4476.8 21.4290
4480.7 21.3820
4484.6 21.3430
4488.4 21.3100
4492.3 21.2860
4496.2 21.2710
4500.1 21.2660
4504 21.2700
4508 21.2810
4511.9 21.2950
4515.8 21.3100
4519.7 21.3190
4523.7 21.3220
4527.6 21.3170
4531.6 21.3040
4535.6 21.2870
4539.5 21.2670
4543.5 21.2470
4547.5 21.2260
4551.5 21.2030
4555.5 21.1770
4559.5 21.1470
4563.5 21.1110
4567.5 21.0670
4571.6 21.0160
4575.6 20.9570
4579.6 20.8890
4583.7 20.8150
4587.7 20.7350
4591.8 20.6510
4595.9 20.5650
4600 20.4790
4604 20.3920
4608.1 20.3020
4612.2 20.2080
4616.3 20.1060
4620.5 19.9950
4624.6 19.8700
4628.7 19.7300
4632.8 19.5760
4637 19.4100
4641.1 19.2370
4645.3 19.0630
4649.5 18.8950
4653.6 18.7390
4657.8 18.5970
4662 18.4710
4666.2 18.3620
4670.4 18.2710
4674.6 18.2010
4678.8 18.1560
4683.1 18.1410
4687.3 18.1590
4691.5 18.2080
4695.8 18.2840
4700 18.3780
4704.3 18.4790
4708.6 18.5760
4712.9 18.6610
4717.2 18.7280
4721.5 18.7750
4725.8 18.8030
4730.1 18.8130
4734.4 18.8060
4738.7 18.7850
4743.1 18.7510
4747.4 18.7060
4751.7 18.6520
4756.1 18.5930
4760.5 18.5320
4764.8 18.4730
4769.2 18.4180
4773.6 18.3690
4778 18.3250
4782.4 18.2840
4786.8 18.2430
4791.3 18.2000
4795.7 18.1530
4800.1 18.0980
4804.6 18.0350
4809 17.9670
4813.5 17.8930
4818 17.8180
4822.5 17.7430
4827 17.6710
4831.5 17.6010
4836 17.5320
4840.5 17.4610
4845 17.3840
4849.5 17.2990
4854.1 17.2050
4858.6 17.1000
4863.2 16.9850
4867.8 16.8590
4872.3 16.7210
4876.9 16.5710
4881.5 16.4100
4886.1 16.2370
4890.7 16.0570
4895.3 15.8720
4900 15.6870
4904.6 15.5060
4909.2 15.3340
4913.9 15.1720
4918.6 15.0250
4923.2 14.8920
4927.9 14.7760
4932.6 14.6740
4937.3 14.5830
4942 14.4970
4946.7 14.4100
4951.4 14.3160
4956.2 14.2100
4960.9 14.0920
4965.7 13.9620
4970.4 13.8260
4975.2 13.6890
4980 13.5580
4984.8 13.4380
4989.6 13.3320
4994.4 13.2410
4999.2 13.1670
5004 13.1060
5008.8 13.0560
5013.7 13.0150
5018.5 12.9810
5023.4 12.9510
5028.3 12.9230
5033.2 12.8960
5038 12.8720
5043 12.8480
5047.9 12.8250
5052.8 12.8030
5057.7 12.7800
5062.7 12.7530
5067.6 12.7200
5072.6 12.6830
5077.5 12.6420
5082.5 12.6020
5087.5 12.5690
5092.5 12.5450
5097.5 12.5330
5102.5 12.5290
5107.5 12.5300
5112.6 12.5290
5117.6 12.5200
5122.7 12.5010
5127.7 12.4710
5132.8 12.4330
5137.9 12.3920
5143 12.3510
5148.1 12.3150
5153.2 12.2850
5158.4 12.2600
5163.5 12.2380
5168.6 12.2140
5173.8 12.1840
5179 12.1450
5184.2 12.0940
5189.3 12.0310
5194.5 11.9570
5199.8 11.8710
5205 11.7770
5210.2 11.6740
5215.4 11.5610
5220.7 11.4380
5226 11.3020
5231.2 11.1560
5236.5 11.0000
5241.8 10.8380
5247.1 10.6760
5252.4 10.5180
5257.8 10.3670
5263.1 10.2260
5268.4 10.0950
5273.8 9.9741
5279.2 9.8637
5284.6 9.7644
5290 9.6772
5295.4 9.6013
5300.8 9.5346
5306.2 9.4741
5311.6 9.4140
5317.1 9.3498
5322.5 9.2785
5328 9.1997
5333.5 9.1181
5339 9.0407
5344.5 8.9758
5350 8.9324
5355.5 8.9145
5361.1 8.9236
5366.6 8.9553
5372.2 9.0024
5377.8 9.0556
5383.3 9.1057
5388.9 9.1462
5394.5 9.1738
5400.2 9.1885
5405.8 9.1948
5411.4 9.1972
5417.1 9.1992
5422.8 9.2011
5428.4 9.1985
5434.1 9.1828
5439.8 9.1457
5445.5 9.0805
5451.3 8.9856
5457 8.8652
5462.8 8.7282
5468.5 8.5840
5474.3 8.4409
5480.1 8.3037
5485.9 8.1726
5491.7 8.0437
5497.5 7.9099
5503.3 7.7612
5509.2 7.5842
5515.1 7.3645
5520.9 7.0879
5526.8 6.7451
5532.7 6.3379
5538.6 5.8823
5544.5 5.4101
5550.5 4.9665
5556.4 4.6008
5562.4 4.3574
5568.4 4.2659
5574.4 4.3325
5580.4 4.5410
5586.4 4.8542
5592.4 5.2222
5598.4 5.5935
5604.5 5.9243
5610.6 6.1870
5616.6 6.3708
5622.7 6.4824
5628.8 6.5400
5634.9 6.5661
5641.1 6.5805
5647.2 6.5974
5653.4 6.6203
5659.6 6.6460
5665.7 6.6658
5671.9 6.6706
5678.2 6.6540
5684.4 6.6138
5690.6 6.5520
5696.9 6.4751
5703.1 6.3909
5709.4 6.3049
5715.7 6.2204
5722 6.1367
5728.3 6.0508
5734.7 5.9597
5741 5.8633
5747.4 5.7659
5753.8 5.6745
5760.2 5.5981
5766.6 5.5408
5773 5.5017
5779.4 5.4719
5785.9 5.4387
5792.3 5.3884
5798.8 5.3130
5805.3 5.2126
5811.8 5.0947
5818.4 4.9714
5824.9 4.8535
5831.4 4.7451
5838 4.6426
5844.6 4.5361
5851.2 4.4145
5857.8 4.2712
5864.4 4.1069
5871.1 3.9302
5877.7 3.7537
5884.4 3.5879
5891.1 3.4375
5897.8 3.3010
5904.5 3.1697
5911.2 3.0356
5918 2.8940
5924.7 2.7471
5931.5 2.6020
5938.3 2.4697
5945.1 2.3584
5952 2.2725
5958.8 2.2107
5965.7 2.1675
5972.5 2.1360
5979.4 2.1094
5986.3 2.0825
5993.2 2.0530
6000.2 2.0193
6007.1 1.9805
6014.1 1.9370
6021.1 1.8892
6028.1 1.8394
6035.1 1.7913
6042.1 1.7500
6049.2 1.7205
6056.3 1.7048
6063.3 1.7041
6070.4 1.7153
6077.6 1.7341
6084.7 1.7549
6091.8 1.7744
6099 1.7915
6106.2 1.8061
6113.4 1.8213
6120.6 1.8394
6127.8 1.8618
6135.1 1.8892
6142.4 1.9214
6149.6 1.9582
6157 2.0010
6164.3 2.0510
6171.6 2.1101
6179 2.1804
6186.3 2.2622
6193.7 2.3545
6201.1 2.4548
6208.6 2.5601
6216 2.6672
6223.5 2.7729
6231 2.8747
6238.5 2.9709
6246 3.0605
6253.5 3.1423
6261.1 3.2175
6268.6 3.2881
6276.2 3.3572
6283.8 3.4282
6291.4 3.5041
6299.1 3.5854
6306.8 3.6719
6314.4 3.7629
6322.1 3.8584
6329.9 3.9597
6337.6 4.0688
6345.4 4.1865
6353.1 4.3093
6360.9 4.4314
6368.7 4.5439
6376.6 4.6394
6384.4 4.7156
6392.3 4.7778
6400.2 4.8367
6408.1 4.9040
6416 4.9849
6424 5.0735
6432 5.1533
6439.9 5.2007
6448 5.1938
6456 5.1225
6464 4.9919
6472.1 4.8225
6480.2 4.6426
6488.3 4.4795
6496.4 4.3496
6504.6 4.2561
6512.8 4.1880
6520.9 4.1287
6529.2 4.0615
6537.4 3.9768
6545.6 3.8738
6553.9 3.7588
6562.2 3.6426
6570.5 3.5342
6578.9 3.4382
6587.2 3.3542
6595.6 3.2793
6604 3.2095
6612.4 3.1433
6620.9 3.0818
6629.4 3.0283
6637.8 2.9863
6646.4 2.9558
6654.9 2.9353
6663.4 2.9194
6672 2.9043
6680.6 2.8857
6689.2 2.8635
6697.9 2.8398
6706.5 2.8174
6715.2 2.7991
6723.9 2.7854
6732.7 2.7751
6741.4 2.7651
6750.2 2.7544
6759 2.7419
6767.8 2.7297
6776.7 2.7205
6785.5 2.7151
6794.4 2.7131
6803.4 2.7109
6812.3 2.7041
6821.3 2.6892
6830.2 2.6655
6839.3 2.6367
6848.3 2.6106
6857.3 2.5950
6866.4 2.5957
6875.5 2.6143
6884.7 2.6472
6893.8 2.6872
6903 2.7258
6912.2 2.7563
6921.4 2.7759
6930.7 2.7864
6940 2.7927
6949.3 2.8015
6958.6 2.8179
6967.9 2.8442
6977.3 2.8794
6986.7 2.9197
6996.2 2.9609
7005.6 3.0002
7015.1 3.0373
7024.6 3.0742
7034.1 3.1157
7043.7 3.1633
7053.3 3.2178
7062.9 3.2746
7072.5 3.3264
7082.2 3.3652
7091.9 3.3835
7101.6 3.3777
7111.3 3.3501
7121.1 3.3069
7130.9 3.2580
7140.7 3.2151
7150.6 3.1880
7160.4 3.1846
7170.3 3.2090
7180.3 3.2620
7190.2 3.3408
7200.2 3.4397
7210.2 3.5517
7220.3 3.6694
7230.3 3.7864
7240.4 3.8996
7250.6 4.0088
7260.7 4.1177
7270.9 4.2307
7281.1 4.3518
7291.4 4.4827
7301.6 4.6216
7311.9 4.7644
7322.3 4.9053
7332.6 5.0400
7343 5.1662
7353.4 5.2832
7363.9 5.3911
7374.3 5.4905
7384.8 5.5793
7395.4 5.6565
7405.9 5.7185
7416.5 5.7654
7427.2 5.7978
7437.8 5.8201
7448.5 5.8376
7459.2 5.8557
7470 5.8784
7480.7 5.9055
7491.6 5.9333
7502.4 5.9570
7513.3 5.9695
7524.2 5.9682
7535.1 5.9531
7546.1 5.9292
7557.1 5.9033
7568.1 5.8840
7579.2 5.8764
7590.3 5.8835
7601.4 5.9028
7612.6 5.9306
7623.8 5.9621
7635 5.9931
7646.2 6.0210
7657.5 6.0452
7668.9 6.0659
7680.2 6.0837
7691.6 6.0979
7703.1 6.1074
7714.5 6.1111
7726 6.1077
7737.5 6.0969
7749.1 6.0793
7760.7 6.0561
7772.3 6.0298
7784 6.0019
7795.7 5.9739
7807.5 5.9468
7819.2 5.9209
7831 5.8965
7842.9 5.8743
7854.8 5.8564
7866.7 5.8450
7878.6 5.8430
7890.6 5.8523
7902.7 5.8738
7914.7 5.9060
7926.8 5.9448
7939 5.9846
7951.2 6.0210
7963.4 6.0500
7975.6 6.0701
7987.9 6.0827
8000.2 6.0910
8012.6 6.0998
8025 6.1128
8037.4 6.1338
8049.9 6.1650
8062.4 6.2082
8075 6.2619
8087.6 6.3254
8100.2 6.3945
8112.9 6.4646
8125.6 6.5283
8138.4 6.5776
8151.2 6.6052
8164 6.6055
8176.9 6.5752
8189.8 6.5141
8202.8 6.4245
8215.8 6.3105
8228.8 6.1755
8241.9 6.0234
8255 5.8577
8268.2 5.6809
8281.4 5.4975
8294.6 5.3127
8307.9 5.1333
8321.3 4.9661
8334.7 4.8186
8348.1 4.6955
8361.5 4.6006
8375 4.5339
8388.6 4.4927
8402.2 4.4719
8415.8 4.4648
8429.5 4.4648
8443.2 4.4658
8457 4.4636
8470.8 4.4565
8484.7 4.4436
8498.6 4.4253
8512.6 4.4009
8526.6 4.3689
8540.6 4.3266
8554.7 4.2717
8568.8 4.2048
8583 4.1299
8597.3 4.0552
8611.6 3.9897
8625.9 3.9426
8640.3 3.9182
8654.7 3.9150
8669.2 3.9265
8683.7 3.9429
8698.2 3.9553
8712.9 3.9582
8727.5 3.9507
8742.2 3.9358
8757 3.9182
8771.8 3.9016
8786.7 3.8877
8801.6 3.8752
8816.6 3.8611
8831.6 3.8420
8846.7 3.8166
8861.8 3.7854
8877 3.7500
8892.2 3.7134
8907.5 3.6780
8922.8 3.6457
8938.2 3.6169
8953.6 3.5918
8969.1 3.5710
8984.7 3.5554
9000.3 3.5471
9015.9 3.5474
9031.6 3.5566
9047.4 3.5747
9063.2 3.5996
9079.1 3.6287
9095 3.6609
9111 3.6958
9127 3.7334
9143.1 3.7754
9159.3 3.8218
9175.5 3.8728
9191.8 3.9260
9208.1 3.9802
9224.5 4.0334
9240.9 4.0854
9257.4 4.1355
9274 4.1829
9290.6 4.2258
9307.3 4.2615
9324 4.2871
9340.8 4.3010
9357.7 4.3042
9374.6 4.3005
9391.6 4.2959
9408.6 4.2964
9425.7 4.3059
9442.9 4.3235
9460.1 4.3457
9477.4 4.3672
9494.8 4.3828
9512.2 4.3899
9529.7 4.3891
9547.2 4.3833
9564.9 4.3757
9582.5 4.3677
9600.3 4.3577
9618.1 4.3418
9636 4.3157
9653.9 4.2764
9671.9 4.2241
9690 4.1628
9708.2 4.0969
9726.4 4.0315
9744.7 3.9704
9763 3.9148
9781.4 3.8645
9799.9 3.8186
9818.5 3.7761
9837.1 3.7361
9855.8 3.6980
9874.6 3.6606
9893.4 3.6238
9912.3 3.5867
9931.3 3.5498
9950.4 3.5156
9969.5 3.4868
9988.7 3.4670
10008 3.4580
10027 3.4592
10047 3.4670
10066 3.4761
10086 3.4809
10106 3.4773
10125 3.4639
10145 3.4419
10165 3.4136
10185 3.3823
10205 3.3494
10225 3.3162
10245 3.2820
10266 3.2466
10286 3.2100
10306 3.1726
10327 3.1355
10348 3.0996
10368 3.0666
10389 3.0373
10410 3.0122
10431 2.9919
10452 2.9763
10473 2.9641
10494 2.9536
10516 2.9424
10537 2.9289
10558 2.9121
10580 2.8926
10602 2.8711
10623 2.8498
10645 2.8291
10667 2.8093
10689 2.7895
10711 2.7693
10733 2.7483
10755 2.7268
10778 2.7051
10800 2.6846
10823 2.6645
10846 2.6455
10868 2.6287
10891 2.6152
10914 2.6084
10937 2.6111
10960 2.6243
10983 2.6465
11007 2.6748
11030 2.7048
11054 2.7344
11077 2.7632
11101 2.7937
11125 2.8291
11149 2.8708
11173 2.9163
11197 2.9600
11221 2.9946
11245 3.0142
11270 3.0156
11294 3.0022
11319 2.9800
11344 2.9587
11369 2.9473
11394 2.9514
11419 2.9724
11444 3.0088
11469 3.0542
11495 3.1018
11520 3.1440
11546 3.1738
11572 3.1865
11598 3.1787
11624 3.1499
11650 3.1030
11676 3.0432
11702 2.9785
11729 2.9175
11755 2.8672
11782 2.8310
11809 2.8086
11836 2.7942
11863 2.7800
11890 2.7593
11918 2.7275
11945 2.6855
11973 2.6374
12000 2.5898
12028 2.5478
12056 2.5137
12084 2.4853
12113 2.4568
12141 2.4219
12169 2.3769
12198 2.3208
12227 2.2593
12256 2.1990
12285 2.1489
12314 2.1155
12343 2.1011
12373 2.1040
12402 2.1182
12432 2.1365
12462 2.1511
12492 2.1560
12522 2.1487
12552 2.1301
12583 2.1050
12614 2.0789
12644 2.0586
12675 2.0503
12706 2.0564
12737 2.0764
12769 2.1069
12800 2.1421
12832 2.1748
12864 2.1982
12896 2.2082
12928 2.2036
12960 2.1868
12993 2.1611
13026 2.1326
13058 2.1062
13091 2.0857
13124 2.0723
13158 2.0664
13191 2.0662
13225 2.0693
13259 2.0735
13293 2.0764
13327 2.0757
13361 2.0703
13396 2.0603
13430 2.0461
13465 2.0290
13500 2.0100
13536 1.9897
13571 1.9685
13607 1.9448
13643 1.9177
13679 1.8855
13715 1.8469
13751 1.8025
13788 1.7539
13824 1.7051
13861 1.6616
13899 1.6289
13936 1.6121
13973 1.6121
14011 1.6262
14049 1.6475
14087 1.6670
14126 1.6765
14164 1.6711
14203 1.6501
14242 1.6189
14281 1.5857
14321 1.5583
14361 1.5432
14400 1.5427
14441 1.5547
14481 1.5752
14521 1.6001
14562 1.6255
14603 1.6494
14645 1.6711
14686 1.6904
14728 1.7061
14770 1.7151
14812 1.7151
14854 1.7046
14897 1.6846
14940 1.6604
14983 1.6401
