# Soil optical properties : White gypsum dune sand
# Colums : Wavelength(nm) Reflectance(%) Transmitance(%)
#
300 46.8108
400 46.8108
401 47.0858
402 47.1621
403 47.6814
404 48.2029
405 48.0813
406 48.4702
407 48.4702
408 48.3860
409 48.7271
410 49.1717
411 49.3010
412 49.3816
413 49.4682
414 49.7558
415 49.7850
416 49.9561
417 50.3410
418 50.5192
419 50.8570
420 51.1086
421 51.4612
422 51.6298
423 51.8736
424 51.9850
425 51.8178
426 52.5613
427 52.5965
428 52.5623
429 52.5372
430 53.1245
431 53.3501
432 53.9352
433 53.9344
434 53.8374
435 54.0699
436 54.6196
437 54.7520
438 55.0724
439 55.2611
440 55.4506
441 55.8081
442 55.5996
443 56.0593
444 56.3408
445 56.2727
446 56.4937
447 57.1427
448 56.6802
449 56.8663
450 57.4331
451 57.5960
452 58.0935
453 57.9168
454 58.3277
455 58.6032
456 59.0565
457 58.9843
458 58.3371
459 58.3218
460 58.8529
461 59.0539
462 59.2177
463 59.4916
464 59.8196
465 59.6886
466 59.4148
467 60.0543
468 59.7623
469 59.9431
470 60.3466
471 60.9034
472 61.1579
473 60.9034
474 61.0685
475 61.4376
476 61.2946
477 60.9516
478 61.1297
479 61.4846
480 61.7257
481 62.1334
482 62.0676
483 61.6614
484 61.7115
485 61.9373
486 62.4970
487 62.8226
488 63.1151
489 62.8807
490 62.6054
491 62.8608
492 62.7800
493 63.3856
494 63.7960
495 63.7327
496 63.7721
497 63.7728
498 63.9775
499 64.6291
500 64.4747
501 64.3689
502 64.7726
503 64.6126
504 64.6925
505 64.8638
506 65.0296
507 65.0347
508 65.2406
509 65.7762
510 65.9433
511 65.8243
512 65.8207
513 65.9535
514 66.3710
515 66.7694
516 66.2919
517 66.2946
518 66.8580
519 66.9179
520 67.7339
521 67.2909
522 67.3334
523 67.3565
524 66.8339
525 66.9179
526 67.0033
527 67.7318
528 67.4818
529 67.6065
530 67.7725
531 68.0206
532 67.8356
533 68.5240
534 69.1190
535 69.0331
536 69.1525
537 69.5793
538 69.4853
539 69.4030
540 69.5206
541 69.6414
542 69.6655
543 69.7438
544 70.2211
545 69.2432
546 70.1258
547 70.2554
548 70.6361
549 71.0995
550 71.0860
551 71.4441
552 71.5528
553 71.1188
554 71.5017
555 71.2419
556 71.5452
557 71.7557
558 72.1515
559 72.3295
560 72.5612
561 72.7212
562 72.8114
563 72.6326
564 72.7269
565 73.2781
566 73.5717
567 73.7413
568 73.7867
569 73.8776
570 74.1243
571 73.8838
572 73.7692
573 73.6622
574 74.1957
575 74.3473
576 74.2144
577 74.6816
578 75.1550
579 75.1074
580 75.3425
581 75.2651
582 74.6136
583 75.0758
584 75.5509
585 76.3586
586 75.5818
587 75.9193
588 75.8551
589 76.2246
590 76.0992
591 76.3991
592 75.8871
593 75.8391
594 75.7755
595 76.7078
596 76.5271
597 76.4304
598 76.3692
599 76.2728
600 76.3796
601 76.5205
602 76.5650
603 76.5785
604 76.7346
605 76.9044
606 76.8091
607 76.5720
608 76.2755
609 76.3695
610 76.4165
611 76.4636
612 76.7131
613 76.8977
614 76.9450
615 76.6960
616 76.5546
617 76.8032
618 76.6745
619 75.9754
620 76.3766
621 76.3645
622 77.3588
623 77.7034
624 77.2646
625 77.1047
626 76.7814
627 76.9397
628 77.2830
629 77.3955
630 77.6255
631 77.5489
632 77.7497
633 77.6832
634 77.5592
635 77.5118
636 77.2280
637 77.3879
638 77.5779
639 77.2281
640 77.3224
641 77.7405
642 77.9117
643 77.7880
644 77.3515
645 77.2752
646 77.3515
647 76.8997
648 77.1102
649 77.5140
650 77.5037
651 77.4933
652 78.1113
653 78.5228
654 78.6399
655 78.3782
656 78.0145
657 78.1788
658 77.8260
659 78.0917
660 78.2718
661 78.3987
662 78.4746
663 77.8450
664 78.3306
665 78.3786
666 78.2547
667 78.3106
668 78.8192
669 78.8739
670 78.9011
671 78.6812
672 78.8498
673 78.7265
674 78.8426
675 78.8353
676 78.3673
677 78.7314
678 78.8353
679 78.9387
680 78.3178
681 78.2141
682 78.2615
683 78.5078
684 78.3566
685 78.4602
686 78.7265
687 78.7743
688 79.2890
689 79.4340
690 79.1444
691 79.1444
692 79.1444
693 79.1172
694 79.2347
695 79.2619
696 79.3315
697 79.6453
698 79.5863
699 79.6738
700 79.4342
701 79.2080
702 79.3763
703 79.4711
704 79.7092
705 79.7787
706 79.8266
707 79.8746
708 79.8048
709 79.8786
710 79.7569
711 80.0482
712 79.5924
713 79.4237
714 79.6399
715 79.9818
716 79.7439
717 79.9122
718 79.8864
719 80.1251
720 80.5407
721 79.7180
722 80.4911
723 80.5411
724 80.2971
725 79.8396
726 80.1797
727 79.8227
728 79.8037
729 80.1408
730 80.0904
731 80.3249
732 80.5391
733 80.4911
734 80.3475
735 80.3024
736 80.1821
737 80.4207
738 80.3002
739 80.6617
740 80.8781
741 80.9507
742 80.5678
743 80.3063
744 80.4735
745 80.4725
746 80.3285
747 80.7608
748 81.1685
749 80.8550
750 80.9529
751 80.5233
752 80.5919
753 80.6885
754 80.2354
755 80.6871
756 80.5669
757 80.7838
758 80.6170
759 81.1680
760 80.4275
761 80.4306
762 80.4086
763 80.6692
764 80.9782
765 81.2651
766 81.3129
767 81.0258
768 80.5748
769 80.3180
770 81.0988
771 81.0988
772 80.9796
773 81.0514
774 81.0989
775 81.2659
776 81.3137
777 81.1705
778 81.3133
779 81.6707
780 81.7439
781 80.9813
782 81.1473
783 81.2174
784 81.2656
785 81.5517
786 81.7437
787 81.9348
788 81.3137
789 81.7908
790 80.9338
791 81.0283
792 81.2702
793 81.3619
794 81.0301
795 81.6483
796 81.5049
797 81.0567
798 80.8643
799 80.8628
800 80.8591
804 81.2353
808 81.0828
812 81.2391
816 80.7088
820 80.8497
824 80.4025
828 80.9924
832 80.9324
836 80.8583
840 80.5357
844 80.7605
848 80.6358
852 80.3537
856 80.4145
860 80.1728
864 80.3567
868 80.2949
872 80.4126
876 80.1813
880 80.1120
884 80.3889
888 79.5202
892 79.4548
896 79.4046
900 79.5521
904 79.3715
908 79.2871
912 79.1294
916 79.3605
920 79.1083
924 78.9827
928 79.1502
932 79.0035
936 78.9616
940 78.6171
944 78.2611
948 77.9739
952 77.4938
956 77.1666
960 76.7809
964 76.4594
968 75.4366
972 74.9943
976 74.4003
980 73.9028
984 73.4018
988 72.8551
992 74.1277
996 74.5065
1000 75.2970
1004 75.9738
1008 76.3560
1012 76.6801
1016 77.5486
1020 78.1333
1024 78.5480
1028 78.9210
1032 79.0347
1036 80.0138
1040 80.1303
1044 80.0352
1048 79.7144
1052 80.2649
1056 79.9405
1060 79.5295
1064 79.7034
1068 79.4259
1072 79.7593
1076 80.2352
1080 80.1814
1084 79.1491
1088 79.5030
1092 79.3275
1096 78.7953
1100 78.3452
1104 78.5797
1108 78.3272
1112 78.1345
1116 78.2239
1120 77.7989
1124 77.6780
1128 77.4021
1132 77.0676
1136 75.8118
1140 73.6785
1144 73.0181
1148 72.0236
1152 70.2312
1156 68.2939
1160 66.0508
1164 64.4514
1168 63.1119
1172 62.3106
1176 62.2582
1180 62.1431
1184 61.9734
1188 62.0478
1192 61.6559
1196 61.5712
1200 61.7449
1204 62.3797
1208 63.3146
1212 63.4397
1216 64.3043
1220 64.7574
1224 65.4143
1228 65.7926
1232 66.4515
1236 67.5392
1240 68.2481
1244 68.8092
1248 69.2577
1252 69.7879
1256 70.1050
1260 70.5126
1264 70.7727
1268 70.7387
1272 70.6781
1276 70.6082
1280 70.6844
1284 70.6905
1288 70.3725
1292 70.1227
1296 69.9531
1300 69.0905
1304 68.5906
1308 67.6531
1312 66.8001
1316 66.1225
1320 65.5511
1324 64.3247
1328 62.7020
1332 61.3882
1336 59.6562
1340 57.9739
1344 56.5369
1348 55.2060
1352 53.9080
1356 52.9247
1360 51.9734
1364 50.9916
1368 49.9296
1372 49.6857
1376 48.7430
1380 48.0533
1384 47.0806
1388 45.9903
1392 44.0790
1396 41.8163
1400 39.3655
1404 36.5712
1408 33.1299
1412 29.9488
1416 27.1611
1420 25.0792
1424 22.3691
1428 19.3693
1432 16.5144
1436 14.8309
1440 15.1468
1444 16.4992
1448 18.8148
1452 20.0046
1456 20.7879
1460 21.4342
1464 21.8037
1468 21.9751
1472 21.7181
1476 21.0863
1480 20.6046
1484 20.8463
1488 21.8415
1492 22.9650
1496 23.6474
1500 26.5731
1504 27.5688
1508 27.9127
1512 27.6088
1516 27.2210
1520 26.8848
1524 26.3955
1528 26.2153
1532 26.7189
1536 27.9858
1540 30.1755
1544 32.1093
1548 33.6958
1552 35.5193
1556 37.3703
1560 38.8853
1564 40.0946
1568 41.1353
1572 42.1258
1576 43.2182
1580 44.3115
1584 45.2790
1588 46.5738
1592 47.8874
1596 49.2036
1600 50.4310
1604 51.7377
1608 52.4637
1612 53.4388
1616 54.4638
1620 55.2748
1624 56.3604
1628 57.4348
1632 58.3725
1636 58.9636
1640 59.6207
1644 60.2367
1648 60.9072
1652 61.3714
1656 61.2820
1660 61.0449
1664 61.0449
1668 60.9093
1672 60.4037
1676 59.6449
1680 58.6775
1684 57.1862
1688 55.5772
1692 53.4454
1696 51.0064
1700 48.8010
1704 45.9056
1708 42.4559
1712 39.7571
1716 36.9937
1720 34.4997
1724 31.8814
1728 30.1952
1732 28.2768
1736 27.4755
1740 27.1152
1744 27.3762
1748 28.2028
1752 29.0266
1756 29.8560
1760 30.4693
1764 31.1120
1768 31.8116
1772 32.3972
1776 33.5419
1780 35.0443
1784 36.4461
1788 37.6614
1792 38.8167
1796 39.9722
1800 40.8860
1804 41.2983
1808 42.2089
1812 42.2520
1816 42.2749
1820 42.5818
1824 42.4964
1828 42.3123
1832 41.6113
1836 41.0754
1840 40.0363
1844 38.3402
1848 36.7588
1852 34.5186
1856 32.0390
1860 29.2211
1864 26.0588
1868 22.8192
1872 19.7423
1876 17.5636
1880 15.6048
1884 13.3878
1888 11.6343
1892 9.9529
1896 8.3806
1900 7.1801
1904 6.1492
1908 5.2997
1912 4.4542
1916 3.8288
1920 3.1861
1924 2.8686
1928 2.6538
1932 2.5441
1936 2.5358
1940 2.5296
1944 2.8365
1948 2.9379
1952 3.1411
1956 3.4466
1960 3.5494
1964 3.6534
1968 3.9619
1972 3.8495
1976 4.5555
1980 5.1586
1984 6.0757
1988 7.4776
1992 9.0979
1996 10.7166
2000 12.2454
2004 14.0881
2008 15.3677
2012 16.6324
2016 17.7431
2020 18.6853
2024 19.4724
2028 20.0392
2032 20.3761
2036 20.9039
2040 21.1853
2044 21.6049
2048 21.3662
2052 21.4374
2056 21.5085
2060 21.3708
2064 21.4374
2068 21.3377
2072 20.9181
2076 20.8988
2079.5 20.5034
2080.3 20.5749
2081.2 20.6589
2082 20.6892
2082.8 20.6110
2083.7 20.4997
2084.5 20.4584
2085.3 20.4738
2086.2 20.3898
2087 20.2939
2087.9 20.1413
2088.7 20.0798
2089.5 20.0214
2090.4 19.9057
2091.2 19.7946
2092.1 19.7170
2092.9 19.6776
2093.8 19.6154
2094.6 19.4843
2095.5 19.3491
2096.3 19.2697
2097.1 19.1650
2098 19.0979
2098.8 19.0583
2099.7 18.9768
2100.5 18.8498
2101.4 18.6547
2102.3 18.5986
2103.1 18.5542
2104 18.4423
2104.8 18.3112
2105.7 18.1613
2106.5 18.1066
2107.4 18.0551
2108.2 17.9147
2109.1 17.7600
2110 17.6003
2110.8 17.4525
2111.7 17.3305
2112.5 17.1799
2113.4 17.0771
2114.3 17.0581
2115.1 17.0632
2116 16.9525
2116.8 16.7739
2117.7 16.6396
2118.6 16.5700
2119.4 16.4736
2120.3 16.3359
2121.2 16.3220
2122 16.2692
2122.9 16.1516
2123.8 16.0239
2124.7 15.8564
2125.5 15.7155
2126.4 15.6753
2127.3 15.6113
2128.1 15.5246
2129 15.4516
2129.9 15.4602
2130.8 15.4055
2131.6 15.2883
2132.5 15.2321
2133.4 15.2158
2134.3 15.2048
2135.2 15.0937
2136 14.9474
2136.9 14.8606
2137.8 14.7646
2138.7 14.7295
2139.6 14.6696
2140.4 14.5854
2141.3 14.5031
2142.2 14.4167
2143.1 14.3847
2144 14.2949
2144.9 14.2260
2145.8 14.2036
2146.6 14.1433
2147.5 14.0507
2148.4 13.9511
2149.3 13.8366
2150.2 13.7644
2151.1 13.6972
2152 13.6101
2152.9 13.4975
2153.8 13.4109
2154.7 13.3527
2155.6 13.2382
2156.5 13.1775
2157.4 13.1223
2158.3 13.0888
2159.2 13.0349
2160.1 12.9489
2161 12.8322
2161.9 12.7356
2162.8 12.6772
2163.7 12.6162
2164.6 12.4912
2165.5 12.3950
2166.4 12.3391
2167.3 12.3037
2168.2 12.2505
2169.1 12.1721
2170 12.0674
2170.9 11.9585
2171.8 11.9172
2172.7 11.8318
2173.6 11.7456
2174.6 11.6428
2175.5 11.6233
2176.4 11.6565
2177.3 11.6057
2178.2 11.5747
2179.1 11.5329
2180 11.5344
2181 11.5930
2181.9 11.5793
2182.8 11.5512
2183.7 11.5466
2184.6 11.5471
2185.6 11.5046
2186.5 11.4377
2187.4 11.3469
2188.3 11.3213
2189.3 11.3745
2190.2 11.3696
2191.1 11.2768
2192 11.2500
2193 11.2773
2193.9 11.2383
2194.8 11.1725
2195.7 11.1230
2196.7 11.0398
2197.6 10.9843
2198.5 10.9094
2199.5 10.8169
2200.4 10.7700
2201.3 10.6874
2202.3 10.5967
2203.2 10.5149
2204.1 10.4260
2205.1 10.3405
2206 10.2636
2207 10.1579
2207.9 10.0290
2208.8 9.9084
2209.8 9.8324
2210.7 9.7287
2211.7 9.5664
2212.6 9.5063
2213.6 9.5227
2214.5 9.5119
2215.5 9.5010
2216.4 9.3989
2217.3 9.3271
2218.3 9.3315
2219.2 9.3552
2220.2 9.3767
2221.1 9.4612
2222.1 9.6064
2223.1 9.7668
2224 9.8852
2225 10.0283
2225.9 10.2072
2226.9 10.3943
2227.8 10.6194
2228.8 10.7961
2229.7 10.9006
2230.7 10.9958
2231.7 11.1303
2232.6 11.2798
2233.6 11.4184
2234.5 11.4797
2235.5 11.4951
2236.5 11.5532
2237.4 11.6394
2238.4 11.6682
2239.4 11.7125
2240.3 11.7807
2241.3 11.7951
2242.3 11.8156
2243.3 11.8359
2244.2 11.8696
2245.2 11.9006
2246.2 11.9436
2247.1 11.9160
2248.1 11.9240
2249.1 11.9301
2250.1 11.8664
2251 11.8049
2252 11.8288
2253 11.8318
2254 11.7942
2255 11.7607
2255.9 11.7395
2256.9 11.7060
2257.9 11.6530
2258.9 11.5720
2259.9 11.4485
2260.9 11.3420
2261.8 11.2688
2262.8 11.2280
2263.8 11.1592
2264.8 11.0510
2265.8 10.9612
2266.8 10.9328
2267.8 10.9345
2268.8 10.9135
2269.8 10.9389
2270.8 11.0158
2271.8 11.0891
2272.8 11.1872
2273.8 11.3186
2274.7 11.4409
2275.7 11.5883
2276.7 11.7546
2277.7 11.9250
2278.7 12.0820
2279.8 12.2053
2280.8 12.3413
2281.8 12.4248
2282.8 12.5290
2283.8 12.6347
2284.8 12.6967
2285.8 12.8105
2286.8 12.8767
2287.8 12.9414
2288.8 12.9944
2289.8 13.0349
2290.8 13.1162
2291.8 13.1858
2292.9 13.2461
2293.9 13.2685
2294.9 13.2829
2295.9 13.3024
2296.9 13.3112
2297.9 13.3379
2299 13.4177
2300 13.4763
2301 13.5122
2302 13.5232
2303 13.4975
2304.1 13.5471
2305.1 13.6023
2306.1 13.6062
2307.1 13.5698
2308.2 13.5475
2309.2 13.5341
2310.2 13.5351
2311.3 13.5544
2312.3 13.5451
2313.3 13.5456
2314.4 13.5437
2315.4 13.5271
2316.4 13.5395
2317.5 13.5664
2318.5 13.5271
2319.5 13.4743
2320.6 13.4677
2321.6 13.4768
2322.6 13.4084
2323.7 13.3269
2324.7 13.2946
2325.8 13.3029
2326.8 13.3005
2327.9 13.2766
2328.9 13.1970
2330 13.0935
2331 13.0219
2332.1 12.9925
2333.1 12.9216
2334.2 12.8322
2335.2 12.8095
2336.3 12.7361
2337.3 12.6291
2338.4 12.5310
2339.4 12.4467
2340.5 12.3652
2341.5 12.2746
2342.6 12.2046
2343.6 12.1406
2344.7 12.0608
2345.8 11.9502
2346.8 11.7932
2347.9 11.6457
2349 11.5781
2350 11.4897
2351.1 11.3449
2352.2 11.2468
2353.2 11.1604
2354.3 11.0385
2355.4 10.9055
2356.4 10.7761
2357.5 10.6540
2358.6 10.5556
2359.7 10.4734
2360.7 10.3188
2361.8 10.1933
2362.9 10.0524
2364 9.9114
2365 9.7734
2366.1 9.6274
2367.2 9.4397
2368.3 9.2519
2369.4 9.1081
2370.4 8.9387
2371.5 8.8078
2372.6 8.6550
2373.7 8.4389
2374.8 8.2463
2375.9 8.1074
2377 7.9668
2378.1 7.7698
2379.1 7.5984
2380.2 7.4458
2381.3 7.2629
2382.4 7.1057
2383.5 6.9660
2384.6 6.7993
2385.7 6.5713
2386.8 6.3624
2387.9 6.2707
2389 6.1440
2390.1 5.9538
2391.2 5.7656
2392.3 5.5935
2393.4 5.4328
2394.5 5.2859
2395.6 5.1499
2396.7 4.9621
2397.9 4.8271
2399 4.7182
2400.1 4.5724
2401.2 4.4524
2402.3 4.3523
2403.4 4.2373
2404.5 4.1128
2405.6 4.0044
2406.8 3.9368
2407.9 3.8662
2409 3.8330
2410.1 3.8003
2411.2 3.7192
2412.4 3.6628
2413.5 3.6257
2414.6 3.5889
2415.7 3.5393
2416.9 3.4343
2418 3.3523
2419.1 3.3489
2420.2 3.3642
2421.4 3.3501
2422.5 3.3350
2423.6 3.3328
2424.8 3.3105
2425.9 3.3181
2427 3.3054
2428.2 3.2324
2429.3 3.2056
2430.5 3.1997
2431.6 3.1946
2432.7 3.1501
2433.9 3.1460
2435 3.1413
2436.2 3.1484
2437.3 3.1404
2438.5 3.1704
2439.6 3.1633
2440.8 3.0891
2441.9 3.0510
2443.1 3.0622
2444.2 3.0515
2445.4 3.0747
2446.5 3.1128
2447.7 3.0854
2448.8 3.0503
2450 3.0742
2451.1 3.0730
2452.3 3.0386
2453.5 3.0115
2454.6 2.9541
2455.8 2.9416
2456.9 2.9536
2458.1 2.9394
2459.3 2.9302
2460.4 2.9070
2461.6 2.9072
2462.8 2.9167
2464 2.8562
2465.1 2.8362
2466.3 2.9055
2467.5 2.8931
2468.6 2.8621
2469.8 2.8618
2471 2.8318
2472.2 2.7959
2473.4 2.7910
2474.5 2.8026
2475.7 2.7795
2476.9 2.7410
2478.1 2.7358
2479.3 2.7429
2480.5 2.7637
2481.6 2.7537
2482.8 2.7615
2484 2.7937
2485.2 2.7414
2486.4 2.6882
2487.6 2.7109
2488.8 2.6885
2490 2.6843
2491.2 2.7078
2492.4 2.7041
2493.6 2.7165
2494.8 2.7666
2496 2.8122
2497.2 2.8184
2498.4 2.8115
2499.6 2.7783
2500.8 2.7388
2502 2.7356
2503.2 2.7307
2504.4 2.7224
2505.6 2.7468
2506.8 2.7507
2508.1 2.7646
2509.3 2.8203
2510.5 2.8667
2511.7 2.8376
2512.9 2.8489
2514.1 2.8816
2515.4 2.8767
2516.6 2.8562
2517.8 2.8938
2519 2.9241
2520.2 2.9473
2521.5 2.9521
2522.7 2.9316
2523.9 2.9573
2525.2 2.9507
2526.4 2.9419
2527.6 2.9297
2528.9 2.9363
2530.1 2.9236
2531.3 2.9038
2532.6 2.8796
2533.8 2.9343
2535 2.9629
2536.3 2.9419
2537.5 2.8976
2538.8 2.8828
2540 2.8809
2541.3 2.8635
2542.5 2.8542
2543.7 2.7961
2545 2.7947
2546.2 2.8171
2547.5 2.7930
2548.7 2.7781
2550 2.7539
2551.3 2.7297
2552.5 2.7524
2553.8 2.7273
2555 2.6785
2556.3 2.6545
2557.5 2.6489
2558.8 2.6797
2560.1 2.7017
2561.3 2.6719
2562.6 2.6079
2563.9 2.6155
2565.1 2.6789
2566.4 2.6787
2567.7 2.6489
2569 2.6169
2570.2 2.5952
2571.5 2.5427
2572.8 2.5166
2574.1 2.5796
2575.3 2.5940
2576.6 2.5586
2577.9 2.5349
2579.2 2.5083
2580.5 2.5474
2581.7 2.5876
2583 2.5478
2584.3 2.5054
2585.6 2.5224
2586.9 2.5652
2588.2 2.5840
2589.5 2.5752
2590.8 2.5549
2592.1 2.5295
2593.4 2.4761
2594.7 2.4753
2596 2.5359
2597.3 2.5386
2598.6 2.4783
2599.9 2.4692
2601.2 2.4790
2602.5 2.4487
2603.8 2.4023
2605.1 2.4082
2606.4 2.4246
2607.7 2.4351
2609 2.4331
2610.3 2.3974
2611.7 2.3984
2613 2.3624
2614.3 2.3093
2615.6 2.3149
2616.9 2.3457
2618.3 2.3645
2619.6 2.3486
2620.9 2.3472
2622.2 2.3806
2623.6 2.3774
2624.9 2.3726
2626.2 2.3557
2627.5 2.3005
2628.9 2.2866
2630.2 2.2622
2631.5 2.2761
2632.9 2.2856
2634.2 2.2859
2635.6 2.2478
2636.9 2.2029
2638.2 2.2104
2639.6 2.2274
2640.9 2.2019
2642.3 2.1423
2643.6 2.0972
2645 2.0884
2646.3 2.1099
2647.7 2.1213
2649 2.0998
2650.4 2.0427
2651.7 1.9836
2653.1 1.9416
2654.5 1.9165
2655.8 1.9319
2657.2 1.9360
2658.5 1.9097
2659.9 1.8826
2661.3 1.8589
2662.6 1.8335
2664 1.7893
2665.4 1.7805
2666.7 1.7419
2668.1 1.7041
2669.5 1.6660
2670.9 1.6680
2672.2 1.6804
2673.6 1.6851
2675 1.6387
2676.4 1.5857
2677.8 1.5894
2679.1 1.5591
2680.5 1.5393
2681.9 1.5627
2683.3 1.6018
2684.7 1.5937
2686.1 1.5478
2687.5 1.5166
2688.9 1.4907
2690.3 1.4631
2691.7 1.4465
2693.1 1.4426
2694.5 1.4376
2695.9 1.4167
2697.3 1.4102
2698.7 1.4006
2700.1 1.3945
2701.5 1.3750
2702.9 1.3428
2704.3 1.3372
2705.7 1.2683
2707.1 1.2488
2708.5 1.2852
2710 1.2727
2711.4 1.2246
2712.8 1.2109
2714.2 1.1899
2715.6 1.1587
2717.1 1.1504
2718.5 1.1443
2719.9 1.1267
2721.3 1.0952
2722.8 1.1018
2724.2 1.1147
2725.6 1.1001
2727.1 1.0945
2728.5 1.1016
2729.9 1.0564
2731.4 1.0356
2732.8 1.0190
2734.3 1.0027
2735.7 1.0259
2737.1 0.9951
2738.6 0.9336
2740 0.9700
2741.5 1.0327
2742.9 1.0161
2744.4 0.9939
2745.8 0.9988
2747.3 0.9739
2748.8 0.9280
2750.2 0.9309
2751.7 0.9236
2753.1 0.8955
2754.6 0.8877
2756.1 0.9004
2757.5 0.8979
2759 0.8660
2760.5 0.8406
2761.9 0.8596
2763.4 0.8708
2764.9 0.8728
2766.4 0.8779
2767.8 0.8616
2769.3 0.8689
2770.8 0.8940
2772.3 0.8826
2773.8 0.8936
2775.2 0.8987
2776.7 0.9145
2778.2 0.9192
2779.7 0.8999
2781.2 0.8904
2782.7 0.9243
2784.2 0.9573
2785.7 0.9874
2787.2 1.0049
2788.7 1.0542
2790.2 1.0906
2791.7 1.1680
2793.2 1.2319
2794.7 1.2690
2796.2 1.3135
2797.7 1.3779
2799.2 1.4558
2800.7 1.5471
2802.2 1.6851
2803.8 1.7605
2805.3 1.8667
2806.8 2.0251
2808.3 2.1182
2809.8 2.1868
2811.4 2.3164
2812.9 2.4282
2814.4 2.5376
2815.9 2.6804
2817.5 2.7698
2819 2.8389
2820.5 2.9187
2822.1 2.9812
2823.6 2.9910
2825.2 2.9741
2826.7 2.9849
2828.2 2.9726
2829.8 2.9128
2831.3 2.8540
2832.9 2.8381
2834.4 2.8230
2836 2.7773
2837.5 2.7331
2839.1 2.6706
2840.6 2.5989
2842.2 2.5413
2843.7 2.4731
2845.3 2.4123
2846.9 2.3391
2848.4 2.2598
2850 2.2297
2851.6 2.2174
2853.1 2.1680
2854.7 2.0924
2856.3 2.0388
2857.9 2.0283
2859.4 1.9978
2861 1.9299
2862.6 1.8938
2864.2 1.8806
2865.8 1.8376
2867.3 1.7961
2868.9 1.7376
2870.5 1.6843
2872.1 1.7017
2873.7 1.7231
2875.3 1.6694
2876.9 1.6340
2878.5 1.6287
2880.1 1.6047
2881.7 1.5911
2883.3 1.5908
2884.9 1.5669
2886.5 1.5249
2888.1 1.5330
2889.7 1.5324
2891.3 1.5166
2892.9 1.5417
2894.6 1.5769
2896.2 1.5862
2897.8 1.5881
2899.4 1.5977
2901 1.6462
2902.7 1.7012
2904.3 1.7747
2905.9 1.8689
2907.5 1.9607
2909.2 2.0862
2910.8 2.2053
2912.4 2.3362
2914.1 2.4844
2915.7 2.6523
2917.4 2.7988
2919 2.9460
2920.7 3.1199
2922.3 3.2891
2923.9 3.4128
2925.6 3.5100
2927.2 3.5918
2928.9 3.6374
2930.6 3.7173
2932.2 3.7414
2933.9 3.7026
2935.5 3.7076
2937.2 3.6995
2938.9 3.6597
2940.5 3.5820
2942.2 3.4866
2943.9 3.4448
2945.5 3.4106
2947.2 3.2886
2948.9 3.1667
2950.6 3.0867
2952.3 3.0337
2953.9 2.9739
2955.6 2.8865
2957.3 2.7903
2959 2.7334
2960.7 2.6670
2962.4 2.6060
2964.1 2.5632
2965.8 2.5271
2967.5 2.4910
2969.2 2.4451
2970.9 2.4160
2972.6 2.4102
2974.3 2.3865
2976 2.3601
2977.7 2.3359
2979.4 2.3223
2981.1 2.2976
2982.8 2.2734
2984.5 2.2505
2986.3 2.2305
2988 2.2334
2989.7 2.2134
2991.4 2.1787
2993.2 2.1689
2994.9 2.1802
2996.6 2.1785
2998.4 2.1858
3000.1 2.2163
3001.8 2.2095
3003.6 2.1731
3005.3 2.1697
3007 2.1621
3008.8 2.1619
3010.5 2.1587
3012.3 2.1555
3014 2.1357
3015.8 2.1228
3017.6 2.1462
3019.3 2.1377
3021.1 2.0889
3022.8 2.0681
3024.6 2.0867
3026.4 2.0894
3028.1 2.0940
3029.9 2.0962
3031.7 2.0749
3033.4 2.0613
3035.2 2.0432
3037 2.0210
3038.8 2.0232
3040.6 2.0295
3042.3 2.0217
3044.1 2.0386
3045.9 2.0239
3047.7 1.9900
3049.5 1.9648
3051.3 1.9785
3053.1 2.0010
3054.9 1.9954
3056.7 1.9888
3058.5 1.9958
3060.3 2.0019
3062.1 1.9966
3063.9 1.9707
3065.7 1.9607
3067.5 1.9653
3069.4 1.9543
3071.2 1.9141
3073 1.9287
3074.8 1.9770
3076.6 1.9878
3078.5 1.9836
3080.3 1.9770
3082.1 1.9795
3084 1.9739
3085.8 1.9768
3087.6 1.9856
3089.5 1.9800
3091.3 1.9814
3093.2 1.9919
3095 2.0159
3096.9 2.0183
3098.7 1.9866
3100.6 1.9631
3102.4 1.9624
3104.3 1.9556
3106.1 1.9558
3108 1.9509
3109.9 1.9429
3111.7 1.9507
3113.6 1.9709
3115.5 1.9668
3117.4 1.9497
3119.2 1.9504
3121.1 1.9604
3123 1.9524
3124.9 1.9648
3126.8 1.9770
3128.6 1.9529
3130.5 1.9114
3132.4 1.9109
3134.3 1.9302
3136.2 1.9353
3138.1 1.9580
3140 1.9748
3141.9 1.9529
3143.8 1.9309
3145.7 1.9316
3147.6 1.9214
3149.5 1.9031
3151.5 1.9031
3153.4 1.9082
3155.3 1.9133
3157.2 1.9123
3159.1 1.9145
3161.1 1.9531
3163 1.9863
3164.9 1.9709
3166.9 1.9409
3168.8 1.9431
3170.7 1.9590
3172.7 1.9727
3174.6 1.9570
3176.6 1.9473
3178.5 1.9653
3180.5 1.9492
3182.4 1.9311
3184.4 1.9092
3186.3 1.9155
3188.3 1.9446
3190.2 1.9526
3192.2 1.9573
3194.2 1.9626
3196.1 1.9729
3198.1 1.9685
3200.1 1.9678
3202.1 1.9644
3204 1.9700
3206 1.9856
3208 1.9939
3210 1.9851
3212 1.9692
3214 1.9956
3216 2.0122
3218 1.9944
3220 1.9705
3222 1.9856
3224 1.9951
3226 1.9851
3228 1.9873
3230 1.9949
3232 2.0178
3234 2.0498
3236.1 2.0469
3238.1 2.0327
3240.1 2.0254
3242.1 2.0249
3244.2 2.0315
3246.2 2.0447
3248.2 2.0813
3250.3 2.1018
3252.3 2.0950
3254.3 2.0723
3256.4 2.0923
3258.4 2.1177
3260.5 2.1411
3262.5 2.1626
3264.6 2.1692
3266.6 2.1572
3268.7 2.1550
3270.8 2.1636
3272.8 2.1606
3274.9 2.1738
3277 2.1841
3279 2.1907
3281.1 2.2229
3283.2 2.2446
3285.3 2.2744
3287.4 2.2949
3289.4 2.3124
3291.5 2.3245
3293.6 2.3369
3295.7 2.3828
3297.8 2.4016
3299.9 2.3884
3302 2.4228
3304.1 2.4626
3306.2 2.4878
3308.3 2.4914
3310.4 2.4997
3312.6 2.5261
3314.7 2.5432
3316.8 2.5513
3318.9 2.5759
3321 2.6030
3323.2 2.6064
3325.3 2.6421
3327.4 2.6802
3329.6 2.7202
3331.7 2.7468
3333.9 2.7598
3336 2.7812
3338.2 2.8132
3340.3 2.8406
3342.5 2.8523
3344.6 2.8647
3346.8 2.8650
3348.9 2.8911
3351.1 2.9246
3353.3 2.9370
3355.4 2.9543
3357.6 2.9831
3359.8 3.0137
3362 3.0381
3364.1 3.0642
3366.3 3.1260
3368.5 3.1636
3370.7 3.2153
3372.9 3.2559
3375.1 3.2724
3377.3 3.2883
3379.5 3.3279
3381.7 3.3735
3383.9 3.4209
3386.1 3.4412
3388.3 3.4773
3390.6 3.5142
3392.8 3.5349
3395 3.5847
3397.2 3.6196
3399.4 3.6406
3401.7 3.6843
3403.9 3.7427
3406.1 3.7778
3408.4 3.8147
3410.6 3.8662
3412.9 3.8806
3415.1 3.8791
3417.4 3.9170
3419.6 3.9873
3421.9 4.0271
3424.1 4.0508
3426.4 4.0889
3428.7 4.1316
3430.9 4.1619
3433.2 4.1711
3435.5 4.2097
3437.8 4.2515
3440 4.2829
3442.3 4.3198
3444.6 4.3642
3446.9 4.4255
3449.2 4.4736
3451.5 4.4924
3453.8 4.5102
3456.1 4.5539
3458.4 4.5896
3460.7 4.6272
3463 4.6626
3465.3 4.6877
3467.7 4.6990
3470 4.7173
3472.3 4.7497
3474.6 4.7800
3477 4.8191
3479.3 4.8574
3481.6 4.9140
3484 4.9692
3486.3 4.9980
3488.7 5.0422
3491 5.0840
3493.4 5.1267
3495.7 5.1804
3498.1 5.2112
3500.4 5.2512
3502.8 5.2988
3505.2 5.3398
3507.5 5.3674
3509.9 5.4084
3512.3 5.4541
3514.7 5.4980
3517.1 5.5417
3519.5 5.5784
3521.8 5.6023
3524.2 5.6167
3526.6 5.6296
3529 5.6601
3531.4 5.6965
3533.8 5.7461
3536.3 5.8164
3538.7 5.8413
3541.1 5.8613
3543.5 5.9050
3545.9 5.9543
3548.4 5.9676
3550.8 6.0110
3553.2 6.0827
3555.7 6.1369
3558.1 6.1836
3560.5 6.2253
3563 6.2544
3565.4 6.2810
3567.9 6.3591
3570.4 6.4414
3572.8 6.5041
3575.3 6.5405
3577.7 6.5818
3580.2 6.6272
3582.7 6.6953
3585.2 6.7707
3587.6 6.8396
3590.1 6.9123
3592.6 6.9668
3595.1 7.0449
3597.6 7.1264
3600.1 7.1780
3602.6 7.2561
3605.1 7.3554
3607.6 7.4525
3610.1 7.5232
3612.7 7.5664
3615.2 7.6335
3617.7 7.7077
3620.2 7.7732
3622.7 7.8435
3625.3 7.9424
3627.8 8.0149
3630.4 8.0478
3632.9 8.0932
3635.5 8.1865
3638 8.2558
3640.6 8.3161
3643.1 8.3916
3645.7 8.4597
3648.2 8.5398
3650.8 8.6328
3653.4 8.6924
3656 8.7261
3658.5 8.7795
3661.1 8.8535
3663.7 8.9194
3666.3 8.9797
3668.9 9.0351
3671.5 9.0923
3674.1 9.1628
3676.7 9.2031
3679.3 9.2402
3681.9 9.3149
3684.5 9.3579
3687.2 9.3850
3689.8 9.4482
3692.4 9.4983
3695 9.5320
3697.7 9.5537
3700.3 9.5573
3703 9.6125
3705.6 9.6379
3708.3 9.6421
3710.9 9.6623
3713.6 9.6721
3716.2 9.6662
3718.9 9.6606
3721.6 9.6467
3724.2 9.6443
3726.9 9.6667
3729.6 9.6777
3732.3 9.7212
3735 9.7688
3737.7 9.8022
3740.4 9.8027
3743.1 9.8015
3745.8 9.8266
3748.5 9.8623
3751.2 9.8816
3753.9 9.8977
3756.6 9.9236
3759.4 9.9353
3762.1 9.9240
3764.8 9.9270
3767.6 9.9382
3770.3 9.9472
3773 9.9465
3775.8 9.9497
3778.5 9.9565
3781.3 9.9563
3784.1 9.9458
3786.8 9.9521
3789.6 9.9331
3792.4 9.9118
3795.1 9.9148
3797.9 9.9199
3800.7 9.9323
3803.5 9.9060
3806.3 9.8845
3809.1 9.8894
3811.9 9.9040
3814.7 9.9106
3817.5 9.8977
3820.3 9.8869
3823.1 9.8672
3825.9 9.8257
3828.8 9.7771
3831.6 9.7614
3834.4 9.7312
3837.3 9.6914
3840.1 9.6238
3843 9.5649
3845.8 9.5447
3848.7 9.5027
3851.5 9.4067
3854.4 9.2566
3857.3 9.0786
3860.1 8.8882
3863 8.6745
3865.9 8.4225
3868.8 8.2063
3871.7 8.1089
3874.6 8.1413
3877.5 8.2737
3880.4 8.4387
3883.3 8.5947
3886.2 8.7419
3889.1 8.8581
3892 8.9013
3894.9 8.8991
3897.9 8.8664
3900.8 8.8420
3903.7 8.8305
3906.7 8.7993
3909.6 8.7656
3912.6 8.7077
3915.5 8.6242
3918.5 8.5620
3921.4 8.4731
3924.4 8.3801
3927.4 8.3008
3930.4 8.2136
3933.3 8.1206
3936.3 8.0278
3939.3 7.9140
3942.3 7.7610
3945.3 7.6094
3948.3 7.4678
3951.3 7.3074
3954.4 7.1264
3957.4 6.9438
3960.4 6.7366
3963.4 6.5349
3966.5 6.3606
3969.5 6.2112
3972.5 6.1045
3975.6 6.0759
3978.6 6.1116
3981.7 6.1555
3984.7 6.2207
3987.8 6.3110
3990.9 6.3782
3994 6.4172
3997 6.4451
4000.1 6.4194
4003.2 6.3713
4006.3 6.3515
4009.4 6.3230
4012.5 6.2761
4015.6 6.2292
4018.7 6.1916
4021.8 6.1089
4025 6.0478
4028.1 5.9968
4031.2 5.9148
4034.4 5.8523
4037.5 5.7981
4040.6 5.7168
4043.8 5.6291
4047 5.5571
4050.1 5.4717
4053.3 5.3884
4056.5 5.3288
4059.6 5.2622
4062.8 5.1767
4066 5.0796
4069.2 4.9944
4072.4 4.9177
4075.6 4.8533
4078.8 4.7663
4082 4.6767
4085.2 4.6072
4088.4 4.5495
4091.7 4.4870
4094.9 4.4145
4098.1 4.3345
4101.4 4.2412
4104.6 4.1584
4107.9 4.0981
4111.1 4.0361
4114.4 3.9529
4117.7 3.8899
4120.9 3.8379
4124.2 3.7826
4127.5 3.7251
4130.8 3.6511
4134.1 3.5891
4137.4 3.5527
4140.7 3.5017
4144 3.4294
4147.3 3.3694
4150.6 3.3267
4154 3.2724
4157.3 3.2170
4160.6 3.1643
4164 3.1204
4167.3 3.0554
4170.7 3.0061
4174 2.9783
4177.4 2.9370
4180.8 2.8845
4184.1 2.8267
4187.5 2.7681
4190.9 2.7129
4194.3 2.6797
4197.7 2.6489
4201.1 2.6118
4204.5 2.5710
4207.9 2.5315
4211.3 2.4714
4214.8 2.4348
4218.2 2.4160
4221.6 2.3577
4225.1 2.2930
4228.5 2.2595
4232 2.2300
4235.4 2.1807
4238.9 2.1589
4242.4 2.1267
4245.8 2.0906
4249.3 2.0688
4252.8 2.0513
4256.3 2.0234
4259.8 1.9907
4263.3 1.9641
4266.8 1.9336
4270.3 1.8957
4273.8 1.8533
4277.4 1.8166
4280.9 1.8132
4284.4 1.8059
4288 1.7646
4291.5 1.7158
4295.1 1.6924
4298.6 1.6936
4302.2 1.6819
4305.8 1.6606
4309.4 1.6526
4312.9 1.6382
4316.5 1.6123
4320.1 1.5942
4323.7 1.5869
4327.3 1.5869
4331 1.5896
4334.6 1.5826
4338.2 1.5615
4341.8 1.5537
4345.5 1.5527
4349.1 1.5457
4352.8 1.5420
4356.4 1.5388
4360.1 1.5310
4363.8 1.5251
4367.4 1.5127
4371.1 1.5193
4374.8 1.5261
4378.5 1.4949
4382.2 1.4963
4385.9 1.5090
4389.6 1.5122
4393.4 1.5093
4397.1 1.4976
4400.8 1.4858
4404.5 1.4871
4408.3 1.4812
4412 1.4824
4415.8 1.4861
4419.6 1.4712
4423.3 1.4592
4427.1 1.4646
4430.9 1.4883
4434.7 1.4674
4438.5 1.4519
4442.3 1.4580
4446.1 1.4592
4449.9 1.4626
4453.7 1.4744
4457.6 1.4709
4461.4 1.4644
4465.2 1.4773
4469.1 1.4805
4473 1.4780
4476.8 1.4795
4480.7 1.4778
4484.6 1.4761
4488.4 1.4685
4492.3 1.4656
4496.2 1.4680
4500.1 1.4761
4504 1.4780
4508 1.4939
4511.9 1.5017
4515.8 1.5073
4519.7 1.5122
4523.7 1.4976
4527.6 1.4927
4531.6 1.4868
4535.6 1.4822
4539.5 1.4866
4543.5 1.4778
4547.5 1.4619
4551.5 1.4751
4555.5 1.4971
4559.5 1.5105
4563.5 1.4990
4567.5 1.4927
4571.6 1.5115
4575.6 1.5107
4579.6 1.5176
4583.7 1.5339
4587.7 1.5549
4591.8 1.5627
4595.9 1.5454
4600 1.5449
4604 1.5561
4608.1 1.5381
4612.2 1.5278
4616.3 1.5422
4620.5 1.5288
4624.6 1.5171
4628.7 1.5334
4632.8 1.5435
4637 1.5526
4641.1 1.5537
4645.3 1.5403
4649.5 1.5303
4653.6 1.5181
4657.8 1.5124
4662 1.5156
4666.2 1.5195
4670.4 1.5112
4674.6 1.5005
4678.8 1.5034
4683.1 1.5007
4687.3 1.5044
4691.5 1.5002
4695.8 1.5059
4700 1.5027
4704.3 1.4924
4708.6 1.4897
4712.9 1.4861
4717.2 1.4846
4721.5 1.4890
4725.8 1.4902
4730.1 1.4819
4734.4 1.4927
4738.7 1.5107
4743.1 1.5049
4747.4 1.5083
4751.7 1.5310
4756.1 1.5424
4760.5 1.5615
4764.8 1.5991
4769.2 1.6267
4773.6 1.6462
4778 1.6758
4782.4 1.7231
4786.8 1.7588
4791.3 1.8003
4795.7 1.8528
4800.1 1.8816
4804.6 1.9045
4809 1.9534
4813.5 1.9900
4818 1.9976
4822.5 2.0383
4827 2.0781
4831.5 2.1055
4836 2.1138
4840.5 2.1372
4845 2.1797
4849.5 2.2139
4854.1 2.2383
4858.6 2.2620
4863.2 2.2749
4867.8 2.2949
4872.3 2.3230
4876.9 2.3393
4881.5 2.3733
4886.1 2.3889
4890.7 2.3977
4895.3 2.4250
4900 2.4592
4904.6 2.4846
4909.2 2.4988
4913.9 2.5203
4918.6 2.5526
4923.2 2.5789
4927.9 2.5911
4932.6 2.6050
4937.3 2.6106
4942 2.6186
4946.7 2.6296
4951.4 2.6316
4956.2 2.6160
4960.9 2.5872
4965.7 2.5615
4970.4 2.5364
4975.2 2.5115
4980 2.5351
4984.8 2.5869
4989.6 2.6352
4994.4 2.6655
4999.2 2.6787
5004 2.6838
5008.8 2.6997
5013.7 2.7214
5018.5 2.7292
5023.4 2.7170
5028.3 2.7082
5033.2 2.7031
5038 2.7046
5043 2.7095
5047.9 2.7173
5052.8 2.7197
5057.7 2.7268
5062.7 2.7114
5067.6 2.7051
5072.6 2.7168
5077.5 2.7395
5082.5 2.7556
5087.5 2.7637
5092.5 2.7634
5097.5 2.7690
5102.5 2.7776
5107.5 2.7817
5112.6 2.8022
5117.6 2.8227
5122.7 2.8328
5127.7 2.8442
5132.8 2.8564
5137.9 2.8589
5143 2.8640
5148.1 2.8743
5153.2 2.8904
5158.4 2.9065
5163.5 2.9260
5168.6 2.9574
5173.8 2.9761
5179 2.9902
5184.2 3.0027
5189.3 3.0212
5194.5 3.0344
5199.8 3.0403
5205 3.0515
5210.2 3.0576
5215.4 3.0466
5220.7 3.0452
5226 3.0552
5231.2 3.0705
5236.5 3.0624
5241.8 3.0549
5247.1 3.0649
5252.4 3.0481
5257.8 3.0134
5263.1 3.0037
5268.4 2.9956
5273.8 2.9880
5279.2 2.9753
5284.6 2.9438
5290 2.9211
5295.4 2.9253
5300.8 2.9270
5306.2 2.9038
5311.6 2.8828
5317.1 2.8799
5322.5 2.8686
5328 2.8501
5333.5 2.8393
5339 2.8098
5344.5 2.7913
5350 2.7773
5355.5 2.7519
5361.1 2.7390
5366.6 2.7234
5372.2 2.6960
5377.8 2.6848
5383.3 2.6909
5388.9 2.6904
5394.5 2.6687
5400.2 2.6523
5405.8 2.6467
5411.4 2.6243
5417.1 2.5964
5422.8 2.5793
5428.4 2.5691
5434.1 2.5483
5439.8 2.5273
5445.5 2.5034
5451.3 2.4734
5457 2.4460
5462.8 2.4053
5468.5 2.3821
5474.3 2.3611
5480.1 2.3191
5485.9 2.2808
5491.7 2.2451
5497.5 2.2273
5503.3 2.1987
5509.2 2.1394
5515.1 2.0957
5520.9 2.0662
5526.8 2.0281
5532.7 1.9863
5538.6 1.9431
5544.5 1.9053
5550.5 1.8657
5556.4 1.8350
5562.4 1.8162
5568.4 1.8003
5574.4 1.7847
5580.4 1.7744
5586.4 1.7698
5592.4 1.7639
5598.4 1.7522
5604.5 1.7331
5610.6 1.7092
5616.6 1.6909
5622.7 1.6721
5628.8 1.6562
5634.9 1.6431
5641.1 1.6230
5647.2 1.6016
5653.4 1.5830
5659.6 1.5637
5665.7 1.5503
5671.9 1.5410
5678.2 1.5212
5684.4 1.4885
5690.6 1.4558
5696.9 1.4460
5703.1 1.4360
5709.4 1.4089
5715.7 1.3889
5722 1.3684
5728.3 1.3569
5734.7 1.3457
5741 1.3318
5747.4 1.3054
5753.8 1.2932
5760.2 1.2803
5766.6 1.2639
5773 1.2576
5779.4 1.2522
5785.9 1.2476
5792.3 1.2302
5798.8 1.2214
5805.3 1.2112
5811.8 1.1807
5818.4 1.1487
5824.9 1.1296
5831.4 1.1272
5838 1.1257
5844.6 1.1216
5851.2 1.0986
5857.8 1.0652
5864.4 1.0342
5871.1 1.0161
5877.7 0.9902
5884.4 0.9697
5891.1 0.9617
5897.8 0.9565
5904.5 0.9561
5911.2 0.9724
5918 1.0156
5924.7 1.0823
5931.5 1.1682
5938.3 1.2410
5945.1 1.2905
5952 1.3057
5958.8 1.3135
5965.7 1.2974
5972.5 1.2541
5979.4 1.2280
5986.3 1.2014
5993.2 1.1733
6000.2 1.1699
6007.1 1.1474
6014.1 1.1233
6021.1 1.0981
6028.1 1.0649
6035.1 1.0540
6042.1 1.0513
6049.2 1.0344
6056.3 1.0156
6063.3 0.9880
6070.4 0.9499
6077.6 0.9282
6084.7 0.9097
6091.8 0.8821
6099 0.8552
6106.2 0.8445
6113.4 0.8877
6120.6 0.9741
6127.8 1.1462
6135.1 1.4311
6142.4 1.7998
6149.6 2.1941
6157 2.5149
6164.3 2.7090
6171.6 2.7524
6179 2.6352
6186.3 2.4551
6193.7 2.2788
6201.1 2.0981
6208.6 1.9558
6216 1.8630
6223.5 1.7944
6231 1.7263
6238.5 1.6692
6246 1.6299
6253.5 1.6089
6261.1 1.5847
6268.6 1.5637
6276.2 1.5427
6283.8 1.5193
6291.4 1.5051
6299.1 1.5071
6306.8 1.4961
6314.4 1.4736
6322.1 1.4602
6329.9 1.4587
6337.6 1.4543
6345.4 1.4353
6353.1 1.4355
6360.9 1.4487
6368.7 1.4407
6376.6 1.4274
6384.4 1.4258
6392.3 1.4258
6400.2 1.4145
6408.1 1.4121
6416 1.4160
6424 1.4150
6432 1.4209
6439.9 1.4302
6448 1.4263
6456 1.4114
6464 1.4023
6472.1 1.3960
6480.2 1.3823
6488.3 1.3874
6496.4 1.3970
6504.6 1.4038
6512.8 1.4082
6520.9 1.4123
6529.2 1.4243
6537.4 1.4141
6545.6 1.4104
6553.9 1.4302
6562.2 1.4304
6570.5 1.4102
6578.9 1.4172
6587.2 1.4280
6595.6 1.4353
6604 1.4377
6612.4 1.4421
6620.9 1.4370
6629.4 1.4246
6637.8 1.4228
6646.4 1.4258
6654.9 1.4165
6663.4 1.4077
6672 1.4182
6680.6 1.4170
6689.2 1.4097
6697.9 1.4114
6706.5 1.4026
6715.2 1.4067
6723.9 1.4204
6732.7 1.4116
6741.4 1.3943
6750.2 1.3872
6759 1.3916
6767.8 1.3972
6776.7 1.3833
6785.5 1.3621
6794.4 1.3789
6803.4 1.3894
6812.3 1.3823
6821.3 1.3674
6830.2 1.3516
6839.3 1.3655
6848.3 1.3608
6857.3 1.3455
6866.4 1.3621
6875.5 1.3760
6884.7 1.3665
6893.8 1.3538
6903 1.3362
6912.2 1.3391
6921.4 1.3420
6930.7 1.3115
6940 1.2942
6949.3 1.3093
6958.6 1.2996
6967.9 1.2866
6977.3 1.2924
6986.7 1.2844
6996.2 1.2742
7005.6 1.2544
7015.1 1.2522
7024.6 1.2644
7034.1 1.2578
7043.7 1.2407
7053.3 1.2615
7062.9 1.2654
7072.5 1.2405
7082.2 1.2173
7091.9 1.1907
7101.6 1.1638
7111.3 1.1428
7121.1 1.1494
7130.9 1.1396
7140.7 1.1082
7150.6 1.0920
7160.4 1.0779
7170.3 1.0640
7180.3 1.0415
7190.2 1.0378
7200.2 1.0364
7210.2 1.0154
7220.3 1.0032
7230.3 1.0059
7240.4 0.9939
7250.6 0.9717
7260.7 0.9397
7270.9 0.9111
7281.1 0.8997
7291.4 0.9045
7301.6 0.9041
7311.9 0.8943
7322.3 0.8611
7332.6 0.8569
7343 0.8555
7353.4 0.8447
7363.9 0.8203
7374.3 0.8076
7384.8 0.8027
7395.4 0.7947
7405.9 0.7822
7416.5 0.7615
7427.2 0.7493
7437.8 0.7441
7448.5 0.7207
7459.2 0.6965
7470 0.6890
7480.7 0.6755
7491.6 0.6538
7502.4 0.6418
7513.3 0.6494
7524.2 0.6543
7535.1 0.6516
7546.1 0.6526
7557.1 0.6384
7568.1 0.6267
7579.2 0.6128
7590.3 0.5857
7601.4 0.5789
7612.6 0.5588
7623.8 0.5330
7635 0.5266
7646.2 0.5247
7657.5 0.5237
7668.9 0.5144
7680.2 0.5015
7691.6 0.4910
7703.1 0.4854
7714.5 0.4807
7726 0.4658
7737.5 0.4478
7749.1 0.4517
7760.7 0.4534
7772.3 0.4458
7784 0.4260
7795.7 0.4021
7807.5 0.3960
7819.2 0.3940
7831 0.3918
7842.9 0.3928
7854.8 0.3914
7866.7 0.3728
7878.6 0.3511
7890.6 0.3524
7902.7 0.3577
7914.7 0.3501
7926.8 0.3242
7939 0.3276
7951.2 0.3560
7963.4 0.3467
7975.6 0.3447
7987.9 0.3572
8000.2 0.3699
8012.6 0.3931
8025 0.4011
8037.4 0.4219
8049.9 0.4553
8062.4 0.4949
8075 0.5457
8087.6 0.5964
8100.2 0.6655
8112.9 0.7422
8125.6 0.8384
8138.4 0.9687
8151.2 1.1055
8164 1.2761
8176.9 1.4978
8189.8 1.7783
8202.8 2.0945
8215.8 2.4499
8228.8 2.8935
8241.9 3.4053
8255 3.9700
8268.2 4.5664
8281.4 5.1843
8294.6 5.7976
8307.9 6.4014
8321.3 7.0085
8334.7 7.6208
8348.1 8.2593
8361.5 8.9573
8375 9.8391
8388.6 10.8867
8402.2 12.0151
8415.8 13.2458
8429.5 14.5014
8443.2 15.7453
8457 16.9231
8470.8 18.0730
8484.7 19.2563
8498.6 20.5061
8512.6 21.8579
8526.6 23.1945
8540.6 24.3500
8554.7 25.2660
8568.8 25.9042
8583 26.2846
8597.3 26.4963
8611.6 26.5929
8625.9 26.6493
8640.3 26.6999
8654.7 26.7250
8669.2 26.7778
8683.7 26.8307
8698.2 26.8647
8712.9 26.8779
8727.5 26.8769
8742.2 26.7844
8757 26.5929
8771.8 26.3967
8786.7 26.1437
8801.6 25.8124
8816.6 25.3962
8831.6 24.8862
8846.7 24.2597
8861.8 23.5019
8877 22.6354
8892.2 21.6911
8907.5 20.6711
8922.8 19.5485
8938.2 18.3906
8953.6 17.2612
8969.1 16.1174
8984.7 15.0217
9000.3 13.9636
9015.9 12.9277
9031.6 11.9541
9047.4 11.0840
9063.2 10.3432
9079.1 9.6865
9095 9.1338
9111 8.6782
9127 8.2553
9143.1 7.8462
9159.3 7.4931
9175.5 7.1662
9191.8 6.8616
9208.1 6.6072
9224.5 6.3559
9240.9 6.1216
9257.4 5.9385
9274 5.7436
9290.6 5.5268
9307.3 5.3901
9324 5.2712
9340.8 5.1284
9357.7 5.0000
9374.6 4.9128
9391.6 4.8306
9408.6 4.7346
9425.7 4.6531
9442.9 4.5647
9460.1 4.4761
9477.4 4.3948
9494.8 4.3313
9512.2 4.2681
9529.7 4.2414
9547.2 4.2161
9564.9 4.1645
9582.5 4.0976
9600.3 4.0449
9618.1 4.0173
9636 3.9729
9653.9 3.9153
9671.9 3.8686
9690 3.8398
9708.2 3.7947
9726.4 3.7441
9744.7 3.7241
9763 3.7168
9781.4 3.6760
9799.9 3.5972
9818.5 3.5417
9837.1 3.4990
9855.8 3.4580
9874.6 3.4451
9893.4 3.4446
9912.3 3.4133
9931.3 3.3684
9950.4 3.3694
9969.5 3.4407
9988.7 3.4016
10008 3.3220
10027.4 3.2727
10046.8 3.2280
10066.3 3.1633
10085.9 3.1040
10105.6 3.0715
10125.3 3.0698
10145.1 3.0640
10165 3.0430
10185 2.9674
10205 2.9009
10225.1 2.9048
10245.4 2.8640
10265.6 2.8164
10286 2.7964
10306.5 2.7715
10327 2.7659
10347.6 2.7529
10368.3 2.7029
10389.1 2.6682
10409.9 2.6545
10430.9 2.6428
10451.9 2.6111
10473 2.5845
10494.2 2.5679
10515.5 2.5569
10536.9 2.5342
10558.4 2.5244
10579.9 2.5288
10601.5 2.5161
10623.3 2.4917
10645.1 2.5088
10667 2.4846
10689 2.4292
10711.1 2.4023
10733.2 2.3911
10755.5 2.3916
10777.9 2.3772
10800.3 2.3542
10822.9 2.3372
10845.5 2.3455
10868.2 2.3494
10891.1 2.3345
10914 2.3223
10937 2.3113
10960.2 2.3008
10983.4 2.2913
11006.7 2.2554
11030.1 2.2356
11053.6 2.2310
11077.3 2.2344
11101 2.2314
11124.8 2.2109
11148.7 2.1738
11172.7 2.1597
11196.9 2.1736
11221.1 2.1941
11245.5 2.1855
11269.9 2.1833
11294.4 2.1645
11319.1 2.1042
11343.9 2.1013
11368.8 2.1362
11393.7 2.1531
11418.8 2.1494
11444 2.1431
11469.4 2.1240
11494.8 2.1218
11520.3 2.0952
11546 2.0557
11571.8 2.0334
11597.7 2.0095
11623.7 1.9988
11649.8 2.0168
11676 1.9914
11702.4 1.9676
11728.9 1.9536
11755.5 1.9539
11782.2 1.9685
11809 1.9473
11836 1.9368
11863.1 1.9231
11890.3 1.8899
11917.6 1.8962
11945 1.9087
11972.6 1.8977
12000.3 1.8916
12028.2 1.8933
12056.2 1.8940
12084.3 1.8689
12112.5 1.8508
12140.9 1.8684
12169.4 1.8391
12198 1.7922
12226.8 1.7822
12255.7 1.7681
12284.7 1.7588
12313.9 1.7605
12343.2 1.7476
12372.7 1.7576
12402.3 1.7571
12432 1.7524
12461.9 1.7297
12491.9 1.7236
12522.1 1.7195
12552.4 1.7207
12582.9 1.7126
12613.5 1.7080
12644.3 1.6851
12675.2 1.6877
12706.3 1.6965
12737.5 1.6843
12768.8 1.6721
12800.4 1.6602
12832.1 1.6506
12863.9 1.6448
12895.9 1.6326
12928.1 1.6274
12960.4 1.6133
12992.9 1.5915
13025.5 1.5657
13058.3 1.5437
13091.3 1.5039
13124.4 1.4744
13157.7 1.5029
13191.2 1.5041
13224.9 1.4839
13258.7 1.4761
13292.7 1.4697
13326.9 1.4595
13361.2 1.4443
13395.7 1.4574
13430.4 1.4456
13465.3 1.4050
13500.4 1.3845
13535.6 1.3838
13571.1 1.3723
13606.7 1.3418
13642.5 1.3103
13678.5 1.2891
13714.7 1.2847
13751.1 1.2717
13787.6 1.2368
13824.4 1.2505
13861.4 1.2642
13898.5 1.2410
13935.9 1.1755
13973.4 1.1423
14011.2 1.1416
