# Soil optical properties : Black loam
# Colums : Wavelength(nm) Reflectance(%) Transmitance(%)
#
300 0.2005
400 0.2005
401 0.5048
402 0.3782
403 0.7244
404 0.8548
405 0.8686
406 0.8686
407 0.8686
408 0.8731
409 0.9152
410 0.9125
411 0.7832
412 0.9540
413 1.0796
414 1.0785
415 0.9479
416 0.8223
417 0.9860
418 0.9794
419 1.3172
420 1.3144
421 1.3122
422 1.3144
423 1.4870
424 1.6570
425 1.4898
426 1.5257
427 1.2676
428 1.1026
429 1.2705
430 1.6954
431 1.4380
432 1.6035
433 1.4749
434 1.6038
435 1.9331
436 1.9351
437 1.9367
438 1.8070
439 1.9695
440 1.9684
441 1.9700
442 1.8371
443 2.0032
444 2.1289
445 2.1274
446 1.9992
447 2.1644
448 1.9978
449 2.1574
450 2.1652
451 2.1661
452 2.4856
453 2.4792
454 2.4895
455 2.4856
456 2.6495
457 2.6465
458 2.6301
459 2.6242
460 2.7248
461 2.7161
462 2.4630
463 2.4693
464 2.6343
465 2.4946
466 2.6147
467 2.6272
468 2.6254
469 2.6218
470 2.6290
471 2.9457
472 2.9457
473 2.9457
474 2.9479
475 2.9545
476 3.0982
477 3.1005
478 3.0958
479 3.0863
480 3.0934
481 3.1029
482 3.0910
483 2.9551
484 3.0768
485 3.0674
486 3.3394
487 3.2490
488 3.2516
489 3.4886
490 3.0697
491 3.2183
492 3.0650
493 3.2361
494 3.2464
495 3.2259
496 3.2285
497 3.6276
498 3.3817
499 3.4093
500 3.6421
501 3.4696
502 3.6363
503 3.6247
504 3.6305
505 3.6247
506 3.6276
507 3.6189
508 3.6247
509 3.7712
510 3.7742
511 3.7562
512 3.7652
513 3.7473
514 3.7503
515 4.1983
516 3.7355
517 3.8516
518 4.1538
519 3.8607
520 4.2052
521 3.8881
522 3.8820
523 4.1845
524 3.9890
525 3.9859
526 3.9735
527 4.1640
528 4.4033
529 4.4033
530 4.3962
531 4.3856
532 4.0763
533 4.4175
534 4.4570
535 4.4498
536 4.4283
537 4.7051
538 4.6751
539 4.6788
540 4.6565
541 4.6454
542 4.3415
543 4.4527
544 4.7662
545 4.4426
546 4.4731
547 4.6085
548 4.6190
549 4.9023
550 4.8792
551 4.8563
552 4.9569
553 4.6420
554 4.9415
555 4.7652
556 5.0685
557 5.0764
558 5.1119
559 5.0587
560 5.0349
561 5.1518
562 5.2781
563 5.5092
564 5.3557
565 5.3722
566 5.3764
567 5.5049
568 5.5091
569 5.5175
570 5.6816
571 5.7704
572 5.7349
573 5.6335
574 5.8381
575 5.8655
576 5.7338
577 5.9490
578 5.9962
579 6.1194
580 5.9696
581 5.9373
582 5.9236
583 5.9190
584 5.9650
585 6.4253
586 6.2500
587 6.3736
588 5.9696
589 6.2500
590 6.3851
591 6.2163
592 6.3443
593 6.3395
594 6.3201
595 6.3883
596 6.4723
597 6.5903
598 6.6156
599 6.7328
600 6.6725
601 6.6474
602 6.6125
603 6.8392
604 6.8290
605 6.9605
606 6.9500
607 7.0486
608 6.8779
609 6.8881
610 6.8932
611 7.0230
612 7.0230
613 7.0024
614 7.0075
615 7.0075
616 6.9921
617 7.1164
618 7.2386
619 7.1589
620 7.1906
621 7.3011
622 7.3436
623 7.2709
624 7.4973
625 7.3011
626 7.3064
627 7.3382
628 7.5139
629 7.5001
630 7.6080
631 7.4892
632 7.4838
633 7.4621
634 7.5860
635 7.5806
636 7.8348
637 7.7044
638 7.8508
639 8.0413
640 8.0528
641 8.0586
642 8.0643
643 7.8170
644 8.0413
645 8.1705
646 8.1647
647 8.1242
648 7.9673
649 8.1242
650 8.1531
651 8.3058
652 8.4294
653 8.4654
654 8.4957
655 8.0671
656 8.1633
657 8.7012
658 8.6399
659 8.6582
660 8.3826
661 8.8376
662 8.8313
663 8.9050
664 8.9364
665 8.9427
666 8.9427
667 8.7900
668 9.0921
669 9.0665
670 9.0538
671 9.0410
672 8.8412
673 9.0878
674 9.1189
675 9.1501
676 9.2615
677 9.1689
678 9.2741
679 9.2552
680 9.1737
681 9.1924
682 9.3218
683 9.4449
684 9.4577
685 9.6847
686 9.7043
687 9.7109
688 9.7307
689 9.8743
690 9.8343
691 9.8343
692 9.9577
693 9.9711
694 10.1288
695 10.1151
696 10.1426
697 10.0800
698 10.1421
699 10.3675
700 10.3329
701 10.3515
702 10.3583
703 10.3721
704 10.5281
705 10.5561
706 10.5631
707 10.6921
708 10.5421
709 10.6567
710 10.9001
711 11.0290
712 10.9782
713 10.9710
714 10.9854
715 10.9638
716 10.9278
717 11.1765
718 11.1912
719 11.2280
720 11.4010
721 11.0630
722 11.1912
723 11.2826
724 11.5616
725 11.5064
726 11.6046
727 11.5673
728 11.5465
729 11.5240
730 11.5540
731 11.6293
732 11.8036
733 11.9169
734 12.1350
735 12.2081
736 12.2081
737 12.0867
738 12.2072
739 12.2072
740 12.2229
741 12.2150
742 12.1923
743 12.1292
744 12.2568
745 12.4165
746 12.2725
747 12.3846
748 12.6325
749 12.6404
750 12.6164
751 12.5843
752 12.4964
753 12.7525
754 12.5767
755 12.6324
756 12.7527
757 12.8890
758 12.7205
759 13.1133
760 13.1671
761 13.0065
762 12.9821
763 13.1258
764 13.1588
765 13.1671
766 13.1753
767 13.1671
768 13.2285
769 13.3998
770 13.3560
771 13.3560
772 13.4753
773 13.3497
774 13.5968
775 13.6053
776 13.6881
777 13.7052
778 13.7309
779 13.8071
780 13.8443
781 13.6739
782 13.7985
783 13.9958
784 13.9609
785 14.0451
786 14.1243
787 14.1154
788 14.2831
789 14.3277
790 14.2565
791 14.2743
792 14.1596
793 14.2958
794 13.8834
795 14.3046
796 14.4418
797 14.5022
798 14.4629
799 14.4643
800 15.0527
804 15.1981
808 15.5715
812 15.7402
816 15.6155
820 15.7206
824 15.8223
828 15.9828
832 16.2585
836 16.4328
840 16.4467
844 16.5384
848 16.8623
852 16.9717
856 17.1707
860 17.2192
864 17.6055
868 17.4961
872 17.6138
876 17.7704
880 17.9354
884 18.0621
888 18.1101
892 18.1578
896 18.1584
900 18.2551
904 18.4183
908 18.5142
912 18.7354
916 18.9665
920 19.1361
924 19.1055
928 19.3768
932 19.3975
936 19.7330
940 19.7784
944 19.8623
948 20.2375
952 20.2195
956 20.2488
960 20.4680
964 20.8636
968 20.7909
972 21.0376
976 21.2165
980 21.3199
984 21.1740
988 21.0371
992 21.5950
996 21.8004
1000 21.8531
1004 21.8984
1008 22.2524
1012 22.2612
1016 22.4767
1020 22.6614
1024 22.6495
1028 22.8532
1032 22.9670
1036 23.2592
1040 23.1823
1044 23.3484
1048 23.2874
1052 23.5531
1056 23.6266
1060 23.9783
1064 23.9283
1068 23.9911
1072 24.0683
1076 24.4843
1080 24.6590
1084 24.5311
1088 24.7720
1092 24.9064
1096 24.9929
1100 24.8803
1104 25.0322
1108 25.1388
1112 25.3367
1116 25.5153
1120 25.6361
1124 25.9338
1128 26.3418
1132 26.2168
1136 26.0496
1140 25.9373
1144 26.0225
1148 26.2190
1152 26.4172
1156 26.7635
1160 26.7651
1164 26.8064
1168 26.8612
1172 27.0672
1176 27.2585
1180 27.4228
1184 27.4398
1188 27.5907
1192 27.4969
1196 27.7884
1200 27.8175
1204 27.8030
1208 27.8848
1212 27.8411
1216 28.1160
1220 28.3315
1224 28.7109
1228 28.7918
1232 29.1722
1236 29.2217
1240 29.1908
1244 28.8116
1248 28.6552
1252 29.0950
1256 29.1291
1260 29.2246
1264 29.1938
1268 29.1324
1272 29.0028
1276 29.1467
1280 29.3051
1284 29.3858
1288 29.5284
1292 29.6840
1296 29.8789
1300 29.8388
1304 29.8080
1308 29.6614
1312 29.6157
1316 29.7079
1320 30.0691
1324 30.2078
1328 30.0919
1332 30.4073
1336 30.6668
1340 30.5098
1344 30.6991
1348 30.3659
1352 30.6283
1356 30.8055
1360 30.4737
1364 30.5290
1368 30.4498
1372 30.6022
1376 30.3963
1380 30.0499
1384 29.8695
1388 30.0499
1392 29.8945
1396 29.8255
1400 29.7027
1404 29.8280
1408 29.5693
1412 29.8473
1416 29.9542
1420 30.2218
1424 30.1829
1428 30.0758
1432 30.2609
1436 30.4394
1440 30.5312
1444 30.4443
1448 30.4647
1452 30.5209
1456 30.6235
1460 30.5331
1464 30.7180
1468 30.7611
1472 30.9004
1476 30.8041
1480 31.0956
1484 31.1435
1488 31.3051
1492 31.2882
1496 31.2372
1500 31.7897
1504 31.9923
1508 32.2110
1512 32.2275
1516 32.1394
1520 32.3230
1524 32.3726
1528 32.3788
1532 32.3833
1536 32.5945
1540 32.8956
1544 32.9171
1548 32.7056
1552 32.7388
1556 33.0058
1560 33.0396
1564 32.9889
1568 32.9932
1572 33.2579
1576 33.2072
1580 33.4309
1584 33.3165
1588 33.5506
1592 33.6906
1596 33.6193
1600 33.6218
1604 33.6868
1608 33.5703
1612 33.5190
1616 33.5019
1620 33.6529
1624 33.8863
1628 33.8345
1632 33.7657
1636 33.6801
1640 33.6972
1644 33.5244
1648 33.8191
1652 33.7848
1656 33.7334
1660 33.7014
1664 33.8055
1668 33.9081
1672 33.8568
1676 34.0481
1680 34.1785
1684 34.0491
1688 34.0835
1692 34.1531
1696 34.2225
1700 34.6983
1704 34.7319
1708 34.4128
1712 34.4992
1716 34.3261
1720 34.3430
1724 34.3603
1728 34.8791
1732 34.5001
1736 34.8218
1740 34.5518
1744 34.2742
1748 34.4729
1752 34.5956
1756 34.6144
1760 34.5968
1764 34.5956
1768 34.5604
1772 34.3088
1776 34.5169
1780 34.8709
1784 34.9217
1788 34.6883
1792 34.6023
1796 34.8180
1800 34.8004
1804 34.4989
1808 34.5850
1812 34.8427
1816 34.8761
1820 34.8601
1824 34.7580
1828 34.8553
1832 34.7384
1836 34.9169
1840 35.0534
1844 34.9363
1848 35.0280
1852 34.7461
1856 34.6241
1860 34.5234
1864 34.1959
1868 33.8617
1872 33.2241
1876 32.8399
1880 32.5134
1884 31.7515
1888 30.9002
1892 29.9838
1896 29.2777
1900 28.3771
1904 28.0490
1908 27.5158
1912 27.0799
1916 26.8887
1920 27.2485
1924 27.7462
1928 27.7655
1932 28.0838
1936 28.2238
1940 28.5086
1944 28.8637
1948 29.1439
1952 29.5116
1956 29.8782
1960 30.0838
1964 30.4074
1968 30.6131
1972 30.6642
1976 30.8075
1980 31.2402
1984 31.3421
1988 31.7251
1992 31.7094
1996 31.8965
2000 32.1281
2004 32.4679
2008 32.3714
2012 32.1586
2016 32.1586
2020 32.1326
2024 32.6035
2028 32.9408
2032 32.6282
2036 32.4756
2040 32.4440
2044 32.5760
2048 32.4125
2052 32.6647
2056 32.6172
2060 32.6536
2064 32.7645
2068 32.7645
2072 32.4608
2076 32.6268
2079.5 32.3576
2080.3 32.3678
2081.2 32.5022
2082 32.4989
2082.8 32.4590
2083.7 32.5286
2084.5 32.4623
2085.3 32.5057
2086.2 32.5147
2087 32.4441
2087.9 32.4224
2088.7 32.4600
2089.5 32.4454
2090.4 32.4429
2091.2 32.5320
2092.1 32.4305
2092.9 32.3518
2093.8 32.3826
2094.6 32.3290
2095.5 32.4305
2096.3 32.5044
2097.1 32.4875
2098 32.4783
2098.8 32.4977
2099.7 32.5767
2100.5 32.5525
2101.4 32.5092
2102.3 32.5961
2103.1 32.6213
2104 32.5389
2104.8 32.4396
2105.7 32.3885
2106.5 32.4351
2107.4 32.4554
2108.2 32.4908
2109.1 32.5081
2110 32.5435
2110.8 32.5743
2111.7 32.5777
2112.5 32.5331
2113.4 32.4269
2114.3 32.4406
2115.1 32.4259
2116 32.3554
2116.8 32.3406
2117.7 32.3975
2118.6 32.5022
2119.4 32.5859
2120.3 32.6051
2121.2 32.5961
2122 32.5640
2122.9 32.5035
2123.8 32.5092
2124.7 32.5171
2125.5 32.4726
2126.4 32.4521
2127.3 32.4327
2128.1 32.3382
2129 32.3609
2129.9 32.2996
2130.8 32.3190
2131.6 32.4224
2132.5 32.3736
2133.4 32.3269
2134.3 32.3451
2135.2 32.3746
2136 32.3930
2136.9 32.4112
2137.8 32.4075
2138.7 32.3484
2139.6 32.3269
2140.4 32.3484
2141.3 32.4008
2142.2 32.3885
2143.1 32.3155
2144 32.2271
2144.9 32.1683
2145.8 32.1131
2146.6 32.1650
2147.5 32.2135
2148.4 32.2951
2149.3 32.3269
2150.2 32.2430
2151.1 32.2248
2152 32.2113
2152.9 32.1333
2153.8 32.1501
2154.7 32.2113
2155.6 32.2193
2156.5 32.1966
2157.4 32.1919
2158.3 32.1131
2159.2 32.0553
2160.1 32.0824
2161 32.1729
2161.9 32.2193
2162.8 32.1468
2163.7 32.1492
2164.6 32.0994
2165.5 32.0475
2166.4 32.0623
2167.3 32.0860
2168.2 32.0678
2169.1 32.0353
2170 32.0353
2170.9 32.0441
2171.8 32.0070
2172.7 31.9654
2173.6 32.0149
2174.6 32.1264
2175.5 32.1501
2176.4 32.0870
2177.3 32.0702
2178.2 32.0229
2179.1 31.9396
2180 31.9441
2181 31.9711
2181.9 31.9733
2182.8 31.9666
2183.7 31.9396
2184.6 31.8891
2185.6 31.8948
2186.5 31.8891
2187.4 31.8377
2188.3 31.8020
2189.3 31.8096
2190.2 31.8534
2191.1 31.8577
2192 31.7640
2193 31.6882
2193.9 31.6692
2194.8 31.6491
2195.7 31.6637
2196.7 31.6947
2197.6 31.6805
2198.5 31.5948
2199.5 31.4950
2200.4 31.4773
2201.3 31.4706
2202.3 31.4266
2203.2 31.4187
2204.1 31.3869
2205.1 31.3592
2206 31.3448
2207 31.2854
2207.9 31.3338
2208.8 31.4153
2209.8 31.5072
2210.7 31.5439
2211.7 31.5870
2212.6 31.6448
2213.6 31.6591
2214.5 31.6458
2215.5 31.7271
2216.4 31.8443
2217.3 31.8556
2218.3 31.9250
2219.2 31.9644
2220.2 32.0274
2221.1 32.0317
2222.1 32.0162
2223.1 32.0453
2224 32.0960
2225 32.0972
2225.9 32.0757
2226.9 32.0780
2227.8 32.1209
2228.8 32.1468
2229.7 32.1492
2230.7 32.0982
2231.7 32.1254
2232.6 32.1446
2233.6 32.1401
2234.5 32.1131
2235.5 32.0578
2236.5 32.0207
2237.4 31.9678
2238.4 31.9419
2239.4 31.9115
2240.3 32.0149
2241.3 32.0553
2242.3 31.9195
2243.3 31.8501
2244.2 31.8029
2245.2 31.7460
2246.2 31.6713
2247.1 31.6680
2248.1 31.7527
2249.1 31.7652
2250.1 31.7472
2251 31.7572
2252 31.6603
2253 31.6037
2254 31.5326
2255 31.4330
2255.9 31.4056
2256.9 31.3869
2257.9 31.4320
2258.9 31.4242
2259.9 31.3405
2260.9 31.3062
2261.8 31.3395
2262.8 31.3129
2263.8 31.3184
2264.8 31.3129
2265.8 31.3019
2266.8 31.2876
2267.8 31.2524
2268.8 31.2558
2269.8 31.2603
2270.8 31.2229
2271.8 31.2087
2272.8 31.2294
2273.8 31.2613
2274.7 31.2536
2275.7 31.1997
2276.7 31.1210
2277.7 31.0610
2278.7 31.0589
2279.8 31.0632
2280.8 31.0794
2281.8 31.0599
2282.8 31.0010
2283.8 30.9651
2284.8 30.9497
2285.8 30.9301
2286.8 30.8890
2287.8 30.9031
2288.8 30.9117
2289.8 30.8553
2290.8 30.8273
2291.8 30.7883
2292.9 30.7040
2293.9 30.7406
2294.9 30.7665
2295.9 30.6609
2296.9 30.5899
2297.9 30.5545
2299 30.5201
2300 30.4590
2301 30.4388
2302 30.4600
2303 30.4301
2304.1 30.3810
2305.1 30.3595
2306.1 30.3490
2307.1 30.3127
2308.2 30.2798
2309.2 30.3277
2310.2 30.3404
2311.3 30.2978
2312.3 30.2626
2313.3 30.2765
2314.4 30.3042
2315.4 30.3191
2316.4 30.3265
2317.5 30.3147
2318.5 30.3459
2319.5 30.3937
2320.6 30.3820
2321.6 30.3478
2322.6 30.3265
2323.7 30.3628
2324.7 30.3725
2325.8 30.3329
2326.8 30.2925
2327.9 30.2626
2328.9 30.2574
2330 30.2415
2331 30.1799
2332.1 30.1270
2333.1 30.0877
2334.2 30.0911
2335.2 30.0571
2336.3 30.0391
2337.3 30.0191
2338.4 29.9897
2339.4 29.9181
2340.5 29.9159
2341.5 29.8948
2342.6 29.8530
2343.6 29.8382
2344.7 29.8078
2345.8 29.8111
2346.8 29.7879
2347.9 29.7076
2349 29.6886
2350 29.7190
2351.1 29.6386
2352.2 29.5889
2353.2 29.5793
2354.3 29.5992
2355.4 29.6595
2356.4 29.7358
2357.5 29.8509
2358.6 29.8298
2359.7 29.7891
2360.7 29.7923
2361.8 29.7692
2362.9 29.7577
2364 29.7327
2365 29.6877
2366.1 29.6615
2367.2 29.6545
2368.3 29.5992
2369.4 29.5680
2370.4 29.5503
2371.5 29.5025
2372.6 29.4913
2373.7 29.4726
2374.8 29.4477
2375.9 29.4994
2377 29.5307
2378.1 29.4272
2379.1 29.3260
2380.2 29.2951
2381.3 29.2630
2382.4 29.2590
2383.5 29.2353
2384.6 29.1768
2385.7 29.1922
2386.8 29.2425
2387.9 29.2951
2389 29.2898
2390.1 29.2046
2391.2 29.1297
2392.3 29.0726
2393.4 29.0397
2394.5 29.0326
2395.6 29.0225
2396.7 29.0267
2397.9 29.0317
2399 28.9878
2400.1 28.9278
2401.2 28.8821
2402.3 28.8589
2403.4 28.8426
2404.5 28.9015
2405.6 28.8974
2406.8 28.8173
2407.9 28.7737
2409 28.7364
2410.1 28.7232
2411.2 28.6910
2412.4 28.6436
2413.5 28.6407
2414.6 28.5965
2415.7 28.5280
2416.9 28.4931
2418 28.4540
2419.1 28.3473
2420.2 28.2668
2421.4 28.2172
2422.5 28.2140
2423.6 28.1844
2424.8 28.0904
2425.9 28.0303
2427 27.9921
2428.2 27.9399
2429.3 27.8399
2430.5 27.7579
2431.6 27.7442
2432.7 27.7170
2433.9 27.6741
2435 27.5925
2436.2 27.5219
2437.3 27.4822
2438.5 27.3946
2439.6 27.3118
2440.8 27.2497
2441.9 27.1865
2443.1 27.1578
2444.2 27.1188
2445.4 27.0683
2446.5 27.0351
2447.7 26.9631
2448.8 26.8871
2450 26.8173
2451.1 26.7759
2452.3 26.7450
2453.5 26.6718
2454.6 26.6465
2455.8 26.5950
2456.9 26.5317
2458.1 26.4971
2459.3 26.4737
2460.4 26.4562
2461.6 26.3727
2462.8 26.2443
2464 26.1374
2465.1 26.0796
2466.3 26.0392
2467.5 26.0347
2468.6 26.0340
2469.8 26.0457
2471 26.0120
2472.2 25.9124
2473.4 25.8524
2474.5 25.8443
2475.7 25.8326
2476.9 25.7610
2478.1 25.7210
2479.3 25.6679
2480.5 25.6220
2481.6 25.5923
2482.8 25.5438
2484 25.5284
2485.2 25.5438
2486.4 25.4802
2487.6 25.4122
2488.8 25.3524
2490 25.2679
2491.2 25.2387
2492.4 25.2529
2493.6 25.2482
2494.8 25.2208
2496 25.2305
2497.2 25.2768
2498.4 25.2652
2499.6 25.2537
2500.8 25.1996
2502 25.1191
2503.2 25.0829
2504.4 25.1033
2505.6 25.1226
2506.8 25.0937
2508.1 25.0556
2509.3 25.0556
2510.5 25.0126
2511.7 24.9775
2512.9 24.9977
2514.1 25.0037
2515.4 24.9748
2516.6 24.9880
2517.8 24.9846
2519 24.9538
2520.2 24.9372
2521.5 24.9531
2522.7 24.9695
2523.9 24.9274
2525.2 24.9626
2526.4 25.0109
2527.6 24.9767
2528.9 24.9300
2530.1 24.9556
2531.3 24.9616
2532.6 24.9152
2533.8 24.8470
2535 24.8140
2536.3 24.7939
2537.5 24.8226
2538.8 24.8365
2540 24.8190
2541.3 24.8348
2542.5 24.8434
2543.7 24.8401
2545 24.8803
2546.2 24.8995
2547.5 24.8995
2548.7 24.8803
2550 24.8846
2551.3 24.8863
2552.5 24.8714
2553.8 24.8968
2555 24.9820
2556.3 25.0478
2557.5 25.0057
2558.8 24.8322
2560.1 24.6331
2561.3 24.4444
2562.6 24.4048
2563.9 24.5322
2565.1 24.6844
2566.4 24.7739
2567.7 24.8384
2569 24.7781
2570.2 24.6887
2571.5 24.6308
2572.8 24.5693
2574.1 24.5900
2575.3 24.6374
2576.6 24.6730
2577.9 24.8008
2579.2 24.7861
2580.5 24.6740
2581.7 24.5546
2583 24.3647
2584.3 24.3049
2585.6 24.4041
2586.9 24.5209
2588.2 24.7487
2589.5 24.8444
2590.8 24.5693
2592.1 24.1661
2593.4 23.7711
2594.7 23.6526
2596 23.8388
2597.3 24.1745
2598.6 24.5875
2599.9 24.8104
2601.2 24.6254
2602.5 24.3159
2603.8 24.0711
2605.1 23.9412
2606.4 23.9666
2607.7 24.0938
2609 24.2460
2610.3 24.4152
2611.7 24.4230
2613 24.2842
2614.3 24.1338
2615.6 23.9311
2616.9 23.6953
2618.3 23.6103
2619.6 23.6684
2620.9 23.8062
2622.2 23.8857
2623.6 23.8991
2624.9 23.9034
2626.2 23.6536
2627.5 23.3990
2628.9 23.2548
2630.2 23.1657
2631.5 23.2253
2632.9 23.3170
2634.2 23.4450
2635.6 23.5046
2636.9 23.4278
2638.2 23.3663
2639.6 23.2875
2640.9 23.1472
2642.3 23.0239
2643.6 22.8312
2645 22.7098
2646.3 22.6746
2647.7 22.5618
2649 22.4384
2650.4 22.2971
2651.7 22.0858
2653.1 21.9133
2654.5 21.7967
2655.8 21.6738
2657.2 21.5696
2658.5 21.4388
2659.9 21.2067
2661.3 20.8586
2662.6 20.4277
2664 20.0715
2665.4 19.6832
2666.7 19.2156
2668.1 18.9914
2669.5 18.9422
2670.9 18.8438
2672.2 18.6771
2673.6 18.4191
2675 18.1174
2676.4 17.7340
2677.8 17.3238
2679.1 16.9898
2680.5 16.6449
2681.9 16.1431
2683.3 15.5097
2684.7 14.8320
2686.1 14.0601
2687.5 13.2203
2688.9 12.3044
2690.3 11.3344
2691.7 10.3893
2693.1 9.4994
2694.5 8.7881
2695.9 8.2612
2697.3 7.8801
2698.7 7.5918
2700.1 7.3293
2701.5 7.1078
2702.9 6.9891
2704.3 6.9121
2705.7 6.8246
2707.1 6.7070
2708.5 6.6175
2710 6.5400
2711.4 6.5133
2712.8 6.5106
2714.2 6.4697
2715.6 6.3630
2717.1 6.1896
2718.5 5.9660
2719.9 5.7213
2721.3 5.4883
2722.8 5.3048
2724.2 5.2037
2725.6 5.1232
2727.1 5.0038
2728.5 4.8727
2729.9 4.7246
2731.4 4.5504
2732.8 4.3994
2734.3 4.2113
2735.7 4.0336
2737.1 3.8938
2738.6 3.7661
2740 3.6507
2741.5 3.5635
2742.9 3.5249
2744.4 3.4708
2745.8 3.3885
2747.3 3.3143
2748.8 3.2239
2750.2 3.1595
2751.7 3.0416
2753.1 2.9385
2754.6 2.8559
2756.1 2.8038
2757.5 2.7969
2759 2.7944
2760.5 2.7992
2761.9 2.7695
2763.4 2.7552
2764.9 2.7877
2766.4 2.8093
2767.8 2.8171
2769.3 2.8530
2770.8 2.8796
2772.3 2.8589
2773.8 2.8450
2775.2 2.8176
2776.7 2.8093
2778.2 2.8165
2779.7 2.8136
2781.2 2.8230
2782.7 2.8301
2784.2 2.8260
2785.7 2.8031
2787.2 2.7934
2788.7 2.7978
2790.2 2.7712
2791.7 2.7411
2793.2 2.7303
2794.7 2.7117
2796.2 2.7129
2797.7 2.7313
2799.2 2.7530
2800.7 2.7629
2802.2 2.7454
2803.8 2.7308
2805.3 2.7196
2806.8 2.6966
2808.3 2.6732
2809.8 2.6593
2811.4 2.6320
2812.9 2.6416
2814.4 2.6341
2815.9 2.6215
2817.5 2.6428
2819 2.6047
2820.5 2.5693
2822.1 2.5937
2823.6 2.6069
2825.2 2.6399
2826.7 2.6735
2828.2 2.6940
2829.8 2.7017
2831.3 2.6865
2832.9 2.6663
2834.4 2.6464
2836 2.6363
2837.5 2.6483
2839.1 2.6428
2840.6 2.5918
2842.2 2.4963
2843.7 2.4968
2845.3 2.5354
2846.9 2.5655
2848.4 2.5494
2850 2.4916
2851.6 2.4726
2853.1 2.4709
2854.7 2.4756
2856.3 2.4803
2857.9 2.4722
2859.4 2.4320
2861 2.4224
2862.6 2.4614
2864.2 2.4554
2865.8 2.4420
2867.3 2.4829
2868.9 2.5203
2870.5 2.4744
2872.1 2.4418
2873.7 2.4540
2875.3 2.4473
2876.9 2.4332
2878.5 2.4100
2880.1 2.4186
2881.7 2.4394
2883.3 2.4203
2884.9 2.4069
2886.5 2.4305
2888.1 2.4363
2889.7 2.4372
2891.3 2.4004
2892.9 2.3877
2894.6 2.3712
2896.2 2.3695
2897.8 2.3755
2899.4 2.3879
2901 2.4126
2902.7 2.4026
2904.3 2.4066
2905.9 2.3987
2907.5 2.3647
2909.2 2.3184
2910.8 2.3090
2912.4 2.3406
2914.1 2.3286
2915.7 2.3313
2917.4 2.3351
2919 2.3092
2920.6 2.2834
2922.3 2.3026
2923.9 2.3478
2925.6 2.3624
2927.2 2.3772
2928.9 2.3851
2930.6 2.3805
2932.2 2.3679
2933.9 2.3415
2935.5 2.3580
2937.2 2.3614
2938.9 2.3463
2940.5 2.3466
2942.2 2.3755
2943.9 2.3894
2945.5 2.3872
2947.2 2.3750
2948.9 2.3702
2950.6 2.3984
2952.3 2.4086
2953.9 2.3978
2955.6 2.3822
2957.3 2.3737
2959 2.3984
2960.7 2.4071
2962.4 2.4016
2964.1 2.4119
2965.8 2.3987
2967.5 2.3722
2969.2 2.3677
2970.9 2.3856
2972.6 2.4148
2974.3 2.4270
2976 2.4343
2977.7 2.4701
2979.4 2.4921
2981.1 2.4569
2982.8 2.4375
2984.5 2.4739
2986.3 2.4820
2988 2.4717
2989.7 2.4858
2991.4 2.4702
2993.2 2.4569
2994.9 2.4764
2996.6 2.4794
2998.4 2.5026
3000.1 2.5367
3001.8 2.5564
3003.6 2.5861
3005.3 2.5671
3007 2.5474
3008.8 2.5504
3010.5 2.5272
3012.3 2.4911
3014 2.5098
3015.8 2.5377
3017.6 2.5621
3019.3 2.5873
3021.1 2.5942
3022.8 2.5947
3024.6 2.5865
3026.4 2.5878
3028.1 2.5928
3029.9 2.5942
3031.7 2.5798
3033.4 2.5753
3035.2 2.5987
3037 2.6444
3038.8 2.6174
3040.6 2.6172
3042.3 2.6389
3044.1 2.6371
3045.9 2.6583
3047.7 2.6755
3049.5 2.6837
3051.3 2.7040
3053.1 2.7136
3054.9 2.7004
3056.7 2.6952
3058.5 2.7076
3060.3 2.7217
3062.1 2.7401
3063.9 2.7411
3065.7 2.7640
3067.5 2.7797
3069.4 2.7632
3071.2 2.7627
3073 2.7712
3074.8 2.7812
3076.6 2.8061
3078.5 2.8193
3080.3 2.8590
3082.1 2.9100
3084 2.9043
3085.8 2.8948
3087.6 2.9038
3089.5 2.8993
3091.3 2.8938
3093.2 2.8832
3095 2.9182
3096.9 2.9541
3098.7 2.9665
3100.6 2.9689
3102.4 3.0026
3104.3 3.0107
3106.1 3.0139
3108 3.0100
3109.9 3.0105
3111.7 3.0272
3113.6 3.0675
3115.5 3.0957
3117.3 3.1050
3119.2 3.1002
3121.1 3.1156
3123 3.1610
3124.9 3.1739
3126.8 3.1735
3128.6 3.1974
3130.5 3.2129
3132.4 3.2134
3134.3 3.2316
3136.2 3.2532
3138.1 3.2732
3140 3.3036
3141.9 3.3146
3143.8 3.3357
3145.7 3.3617
3147.6 3.3801
3149.5 3.4254
3151.5 3.4631
3153.4 3.4797
3155.3 3.4742
3157.2 3.4773
3159.1 3.5072
3161.1 3.5331
3163 3.5421
3164.9 3.5675
3166.9 3.6249
3168.8 3.6493
3170.7 3.6567
3172.7 3.6903
3174.6 3.7146
3176.6 3.7128
3178.5 3.7206
3180.5 3.7577
3182.4 3.7895
3184.4 3.8312
3186.3 3.8778
3188.3 3.8730
3190.2 3.8785
3192.2 3.8881
3194.2 3.9032
3196.1 3.9379
3198.1 3.9683
3200.1 3.9967
3202.1 4.0113
3204.1 4.0166
3206 4.0450
3208 4.0786
3210 4.1205
3212 4.1666
3214 4.2020
3216 4.2224
3218 4.2159
3220 4.2075
3222 4.2118
3224 4.2424
3226 4.2808
3228 4.3085
3230 4.3334
3232 4.3829
3234 4.4261
3236.1 4.4377
3238.1 4.4513
3240.1 4.4640
3242.1 4.4676
3244.2 4.4968
3246.2 4.5400
3248.2 4.5637
3250.3 4.5769
3252.3 4.5936
3254.3 4.6401
3256.4 4.6631
3258.4 4.6599
3260.5 4.6741
3262.5 4.7092
3264.6 4.7491
3266.6 4.7862
3268.7 4.8451
3270.8 4.8837
3272.8 4.9106
3274.9 4.9208
3277 4.9286
3279 4.9584
3281.1 5.0095
3283.2 5.0561
3285.3 5.1199
3287.4 5.1610
3289.4 5.1775
3291.5 5.2097
3293.6 5.2268
3295.7 5.2253
3297.8 5.2485
3299.9 5.2947
3302 5.3415
3304.1 5.3861
3306.2 5.4167
3308.3 5.4402
3310.4 5.4608
3312.6 5.4897
3314.7 5.5267
3316.8 5.5715
3318.9 5.5795
3321 5.5785
3323.2 5.6026
3325.3 5.6169
3327.4 5.6296
3329.6 5.6485
3331.7 5.6590
3333.9 5.6789
3336 5.6949
3338.2 5.7076
3340.3 5.7136
3342.5 5.7198
3344.6 5.7143
3346.8 5.7051
3348.9 5.7001
3351.1 5.6919
3353.3 5.6842
3355.4 5.6822
3357.6 5.6645
3359.8 5.6149
3362 5.5806
3364.1 5.5892
3366.3 5.6004
3368.5 5.5997
3370.7 5.6000
3372.9 5.5593
3375.1 5.5244
3377.3 5.5224
3379.5 5.5030
3381.7 5.4911
3383.9 5.5040
3386.1 5.5256
3388.3 5.5433
3390.6 5.5452
3392.8 5.5122
3395 5.4842
3397.2 5.4571
3399.4 5.4225
3401.7 5.3998
3403.9 5.3597
3406.1 5.3345
3408.4 5.3227
3410.6 5.3141
3412.9 5.3011
3415.1 5.2762
3417.4 5.2555
3419.6 5.2622
3421.9 5.3160
3424.1 5.3555
3426.4 5.4031
3428.7 5.4985
3430.9 5.6256
3433.2 5.7430
3435.5 5.8312
3437.8 5.9391
3440 6.0256
3442.3 6.0660
3444.6 6.1203
3446.9 6.1787
3449.2 6.2395
3451.5 6.3000
3453.8 6.3242
3456.1 6.3743
3458.4 6.4180
3460.7 6.4156
3463 6.4538
3465.3 6.5211
3467.7 6.5697
3470 6.5991
3472.3 6.6432
3474.6 6.6824
3477 6.7053
3479.3 6.7289
3481.6 6.7523
3484 6.8008
3486.3 6.8257
3488.7 6.8403
3491 6.8712
3493.4 6.8740
3495.7 6.8695
3498.1 6.8697
3500.4 6.8262
3502.8 6.7865
3505.2 6.7790
3507.5 6.8434
3509.9 6.9953
3512.3 7.1604
3514.7 7.3391
3517.1 7.5372
3519.5 7.7134
3521.8 7.8564
3524.2 7.9562
3526.6 8.0548
3529 8.1493
3531.4 8.2256
3533.8 8.3083
3536.3 8.3803
3538.7 8.4503
3541.1 8.5084
3543.5 8.5737
3545.9 8.6378
3548.4 8.6778
3550.8 8.7101
3553.2 8.7768
3555.7 8.8458
3558.1 8.9034
3560.5 8.9555
3563 9.0331
3565.4 9.0976
3567.9 9.1659
3570.4 9.1987
3572.8 9.2202
3575.3 9.2752
3577.7 9.3221
3580.2 9.3456
3582.7 9.3867
3585.2 9.4338
3587.6 9.4834
3590.1 9.5324
3592.6 9.5821
3595.1 9.6207
3597.6 9.6626
3600.1 9.7059
3602.6 9.7506
3605.1 9.7917
3607.6 9.8246
3610.1 9.8626
3612.7 9.9267
3615.2 9.9806
3617.7 10.0093
3620.2 10.0399
3622.7 10.0830
3625.3 10.1217
3627.8 10.1521
3630.4 10.1834
3632.9 10.2193
3635.5 10.2507
3638 10.2737
3640.6 10.3285
3643.1 10.3664
3645.7 10.4076
3648.2 10.4461
3650.8 10.4641
3653.4 10.4892
3656 10.5531
3658.5 10.6301
3661.1 10.6593
3663.7 10.6856
3666.3 10.7184
3668.9 10.7629
3671.5 10.8134
3674.1 10.8349
3676.7 10.8562
3679.3 10.8945
3681.9 10.9251
3684.5 10.9548
3687.2 11.0122
3689.8 11.0720
3692.4 11.1228
3695 11.1532
3697.7 11.1958
3700.3 11.2439
3703 11.2809
3705.6 11.3446
3708.3 11.3745
3710.9 11.3947
3713.6 11.4398
3716.2 11.4704
3718.9 11.4998
3721.6 11.5484
3724.2 11.5761
3726.9 11.5993
3729.6 11.6377
3732.3 11.6998
3735 11.7262
3737.7 11.7618
3740.4 11.8231
3743.1 11.8647
3745.8 11.9049
3748.5 11.9435
3751.2 11.9619
3753.9 12.0128
3756.6 12.0597
3759.4 12.0997
3762.1 12.1353
3764.8 12.1913
3767.6 12.2408
3770.3 12.2683
3773 12.3054
3775.8 12.3318
3778.5 12.3567
3781.3 12.4073
3784.1 12.4611
3786.8 12.4861
3789.6 12.5217
3792.4 12.5676
3795.1 12.5964
3797.9 12.6272
3800.7 12.6762
3803.5 12.7061
3806.3 12.7437
3809.1 12.8059
3811.9 12.8363
3814.7 12.8634
3817.5 12.8928
3820.3 12.9112
3823.1 12.9491
3825.9 13.0047
3828.8 13.0311
3831.6 13.0471
3834.4 13.1029
3837.3 13.1475
3840.1 13.1809
3843 13.2141
3845.8 13.2435
3848.7 13.2639
3851.5 13.2721
3854.4 13.2957
3857.3 13.3256
3860.1 13.3801
3863 13.4144
3865.9 13.4271
3868.8 13.4653
3871.7 13.4924
3874.6 13.5236
3877.5 13.5732
3880.4 13.5852
3883.3 13.6106
3886.2 13.6661
3889.1 13.7093
3892 13.7412
3894.9 13.7531
3897.9 13.7581
3900.8 13.7818
3903.7 13.8050
3906.7 13.8453
3909.6 13.8847
3912.6 13.8814
3915.5 13.8996
3918.5 13.9323
3921.4 13.9568
3924.4 13.9922
3927.4 14.0355
3930.4 14.0499
3933.3 14.0577
3936.3 14.0883
3939.3 14.1278
3942.3 14.1656
3945.3 14.1836
3948.3 14.2032
3951.3 14.2171
3954.4 14.2299
3957.4 14.2496
3960.4 14.2776
3963.4 14.3109
3966.5 14.3501
3969.5 14.3819
3972.5 14.4066
3975.6 14.4056
3978.6 14.4151
3981.7 14.4355
3984.7 14.4635
3987.8 14.4817
3990.9 14.4975
3994 14.5214
3997 14.5681
4000.1 14.6075
4003.2 14.6147
4006.3 14.6341
4009.4 14.6676
4012.5 14.6755
4015.6 14.6765
4018.7 14.7202
4021.8 14.7437
4025 14.7555
4028.1 14.7710
4031.2 14.7877
4034.4 14.8422
4037.5 14.8695
4040.6 14.8569
4043.8 14.8748
4047 14.9071
4050.1 14.9339
4053.3 14.9602
4056.5 14.9918
4059.6 15.0142
4062.8 15.0449
4066 15.0731
4069.2 15.0858
4072.4 15.0980
4075.6 15.0990
4078.8 15.1090
4082 15.1191
4085.2 15.1351
4088.4 15.1820
4091.7 15.2166
4094.9 15.2340
4098.1 15.2435
4101.4 15.2600
4104.6 15.2940
4107.9 15.3068
4111.1 15.3031
4114.4 15.3422
4117.7 15.3689
4120.9 15.3703
4124.2 15.3963
4127.5 15.4093
4130.8 15.4179
4134.1 15.4397
4137.4 15.4431
4140.7 15.4593
4144 15.4798
4147.3 15.5022
4150.6 15.5217
4154 15.5311
4157.3 15.5344
4160.6 15.5337
4164 15.5251
4167.3 15.5399
4170.7 15.5514
4174 15.5595
4177.4 15.5797
4180.8 15.5864
4184.1 15.5737
4187.5 15.5775
4190.9 15.5897
4194.3 15.5787
4197.7 15.5835
4201.1 15.6016
4204.5 15.6071
4207.9 15.5994
4211.3 15.5804
4214.8 15.5655
4218.2 15.5672
4221.6 15.5567
4225.1 15.5366
4228.5 15.5164
4232 15.4983
4235.4 15.5164
4238.9 15.5388
4242.4 15.5179
4245.8 15.5119
4249.3 15.5186
4252.8 15.5097
4256.3 15.4870
4259.8 15.4624
4263.3 15.4646
4266.8 15.4701
4270.3 15.4576
4273.8 15.4332
4277.4 15.4327
4280.9 15.4444
4284.4 15.4251
4288 15.4093
4291.5 15.4165
4295.1 15.4157
4298.6 15.4122
4302.2 15.4122
4305.8 15.4200
4309.4 15.4419
4312.9 15.4555
4316.5 15.4364
4320.1 15.4122
4323.7 15.3980
4327.3 15.3925
4331 15.3818
4334.6 15.3602
4338.2 15.3397
4341.8 15.3337
4345.5 15.3133
4349.1 15.2880
4352.8 15.2940
4356.4 15.2913
4360.1 15.2552
4363.8 15.2098
4367.4 15.1971
4371.1 15.1832
4374.8 15.1438
4378.5 15.1134
4382.2 15.0975
4385.9 15.0927
4389.6 15.0863
4393.4 15.0614
4397.1 15.0304
4400.8 15.0133
4404.5 14.9870
4408.3 14.9611
4412 14.9439
4415.8 14.9045
4419.6 14.8762
4423.3 14.8647
4427.1 14.8523
4430.9 14.8267
4434.7 14.7872
4438.5 14.7523
4442.3 14.7219
4446.1 14.6925
4449.9 14.6760
4453.7 14.6558
4457.6 14.6152
4461.4 14.5686
4465.2 14.5302
4469.1 14.5046
4473 14.4975
4476.8 14.4736
4480.7 14.4513
4484.6 14.4422
4488.4 14.4233
4492.3 14.3979
4496.2 14.3779
4500.1 14.3610
4504 14.3475
4508 14.3288
4511.9 14.3183
4515.8 14.3224
4519.7 14.3199
4523.7 14.2949
4527.6 14.2835
4531.6 14.2840
4535.6 14.2620
4539.5 14.2411
4543.5 14.2249
4547.5 14.1936
4551.5 14.1641
4555.5 14.1439
4559.5 14.1314
4563.5 14.1130
4567.5 14.0814
4571.6 14.0527
4575.6 14.0374
4579.6 14.0103
4583.7 13.9807
4587.7 13.9577
4591.8 13.9348
4595.9 13.9029
4600 13.8645
4604 13.8269
4608.1 13.8079
4612.2 13.7838
4616.3 13.7541
4620.5 13.7321
4624.6 13.7041
4628.7 13.6771
4632.8 13.6445
4637 13.5981
4641.1 13.5647
4645.3 13.5313
4649.5 13.4967
4653.6 13.4782
4657.8 13.4635
4662 13.4536
4666.2 13.4386
4670.4 13.4239
4674.6 13.3938
4678.8 13.3715
4683.1 13.3436
4687.3 13.3304
4691.5 13.3205
4695.8 13.3098
4700 13.3005
4704.3 13.2953
4708.6 13.2906
4712.9 13.2938
4717.2 13.3163
4721.5 13.3012
4725.8 13.2677
4730.1 13.2490
4734.4 13.2352
4738.7 13.2230
4743.1 13.2105
4747.4 13.1956
4751.7 13.2031
4756.1 13.2086
4760.5 13.1928
4764.8 13.1734
4769.2 13.1655
4773.6 13.1493
4778 13.1347
4782.4 13.1289
4786.8 13.1223
4791.3 13.1134
4795.7 13.0979
4800.1 13.0866
4804.6 13.0691
4809 13.0505
4813.5 13.0421
4818 13.0256
4822.5 13.0047
4827 12.9798
4831.5 12.9576
4836 12.9514
4840.5 12.9499
4845 12.9394
4849.5 12.9157
4854.1 12.8899
4858.6 12.8746
4863.2 12.8552
4867.8 12.8380
4872.3 12.7976
4876.9 12.7588
4881.5 12.7243
4886.1 12.6794
4890.7 12.6246
4895.3 12.5720
4900 12.5102
4904.6 12.4489
4909.2 12.3839
4913.9 12.3200
4918.6 12.2669
4923.2 12.2140
4927.9 12.1755
4932.6 12.1511
4937.3 12.1231
4942 12.0877
4946.7 12.0497
4951.4 12.0228
4956.2 11.9858
4960.9 11.9258
4965.7 11.8675
4970.4 11.8186
4975.2 11.7663
4980 11.7060
4984.8 11.6439
4989.6 11.5984
4994.4 11.5694
4999.2 11.5293
5004 11.4979
5008.8 11.4757
5013.7 11.4463
5018.5 11.4309
5023.4 11.4256
5028.3 11.4106
5033.2 11.4094
5038 11.4054
5043 11.3822
5047.9 11.3582
5052.8 11.3403
5057.7 11.3104
5062.7 11.2852
5067.6 11.2723
5072.6 11.2599
5077.5 11.2441
5082.5 11.2417
5087.5 11.2429
5092.5 11.2304
5097.5 11.2135
5102.5 11.1996
5107.5 11.1905
5112.6 11.1716
5117.6 11.1364
5122.7 11.1191
5127.7 11.0998
5132.8 11.0627
5137.9 11.0204
5143 10.9900
5148.1 10.9752
5153.2 10.9536
5158.4 10.9336
5163.5 10.9309
5168.6 10.9276
5173.8 10.8940
5179 10.8562
5184.2 10.8244
5189.3 10.7960
5194.5 10.7617
5199.8 10.7029
5205 10.6466
5210.2 10.5832
5215.4 10.5136
5220.7 10.4509
5226 10.3818
5231.2 10.2971
5236.5 10.2021
5241.8 10.1150
5247.1 10.0212
5252.4 9.9287
5257.8 9.8401
5263.1 9.7521
5268.4 9.6688
5273.8 9.5678
5279.2 9.4717
5284.6 9.3884
5290 9.3236
5295.4 9.2757
5300.8 9.2252
5306.2 9.1719
5311.6 9.1302
5317.1 9.0886
5322.5 9.0434
5328 9.0016
5333.5 8.9358
5339 8.8546
5344.5 8.7868
5350 8.7608
5355.5 8.7567
5361.1 8.7621
5366.6 8.8055
5372.2 8.8623
5377.8 8.8805
5383.3 8.9151
5388.9 8.9645
5394.5 8.9956
5400.2 9.0079
5405.8 8.9972
5411.4 8.9839
5417.1 8.9623
5422.8 8.9420
5428.4 8.9361
5434.1 8.9388
5439.8 8.9553
5445.5 8.9256
5451.3 8.8498
5457 8.7623
5462.8 8.6632
5468.5 8.5782
5474.3 8.4991
5480.1 8.4469
5485.9 8.4040
5491.7 8.3335
5497.5 8.2481
5503.3 8.1607
5509.2 8.0627
5515.1 7.9562
5520.9 7.8457
5526.8 7.7333
5532.7 7.6224
5538.6 7.5083
5544.5 7.3849
5550.5 7.2729
5556.4 7.1494
5562.4 6.9973
5568.4 6.8508
5574.4 6.7209
5580.4 6.5968
5586.4 6.4759
5592.4 6.3701
5598.4 6.2618
5604.5 6.1362
5610.6 6.0057
5616.6 5.8866
5622.7 5.7410
5628.8 5.5921
5634.9 5.4643
5641.1 5.3531
5647.2 5.2450
5653.4 5.1444
5659.6 5.0581
5665.7 4.9801
5671.9 4.8695
5678.2 4.7478
5684.4 4.6382
5690.6 4.5163
5696.9 4.3788
5703.1 4.2360
5709.4 4.1011
5715.7 4.0004
5722 3.9025
5728.3 3.7977
5734.7 3.6988
5741 3.5934
5747.4 3.4725
5753.8 3.3611
5760.2 3.2651
5766.6 3.1787
5773 3.1284
5779.4 3.0897
5785.9 3.0521
5792.3 3.0117
5798.8 2.9377
5805.3 2.8478
5811.8 2.7528
5818.4 2.6695
5824.9 2.6140
5831.4 2.5748
5838 2.5459
5844.6 2.5155
5851.2 2.4764
5857.8 2.4136
5864.4 2.3291
5871.1 2.2382
5877.7 2.1544
5884.4 2.1038
5891.1 2.0587
5897.8 2.0255
5904.5 2.0155
5911.2 1.9829
5918 1.9274
5924.7 1.8707
5931.5 1.8040
5938.3 1.7581
5945.1 1.7312
5952 1.7217
5958.8 1.7095
5965.7 1.6699
5972.5 1.6149
5979.4 1.5707
5986.3 1.5542
5993.2 1.5475
6000.2 1.5383
6007.1 1.5360
6014.1 1.5371
6021.1 1.5286
6028.1 1.4987
6035.1 1.4601
6042.1 1.4331
6049.2 1.4097
6056.3 1.3943
6063.3 1.4027
6070.4 1.4244
6077.6 1.4398
6084.7 1.4386
6091.8 1.4396
6099 1.4474
6106.2 1.4316
6113.4 1.4187
6120.6 1.4281
6127.8 1.4429
6135.1 1.4548
6142.4 1.4650
6149.6 1.4797
6157 1.4773
6164.3 1.4772
6171.6 1.4895
6179 1.4955
6186.3 1.5094
6193.7 1.5266
6201.1 1.5427
6208.6 1.5590
6216 1.5826
6223.5 1.6128
6231 1.6271
6238.5 1.6453
6246 1.6614
6253.5 1.6687
6261.1 1.6807
6268.6 1.6953
6276.2 1.7065
6283.8 1.7285
6291.4 1.7621
6299.1 1.7870
6306.8 1.8187
6314.4 1.8420
6322.1 1.8422
6329.9 1.8289
6337.6 1.8298
6345.4 1.8441
6353.1 1.8640
6360.9 1.8723
6368.7 1.8956
6376.6 1.9329
6384.4 1.9403
6392.3 1.9186
6400.2 1.9080
6408.1 1.8917
6416 1.8874
6424 1.9094
6432 1.9487
6439.9 1.9954
6448 2.0288
6456 2.0403
6464 2.0312
6472.1 2.0049
6480.2 1.9919
6488.3 1.9829
6496.4 1.9786
6504.6 2.0176
6512.8 2.0731
6520.9 2.1195
6529.2 2.1384
6537.4 2.1357
6545.7 2.1295
6553.9 2.1116
6562.2 2.0963
6570.5 2.0948
6578.9 2.1143
6587.2 2.1372
6595.6 2.1654
6604 2.1975
6612.4 2.2059
6620.9 2.1999
6629.4 2.2080
6637.8 2.2429
6646.4 2.2777
6654.9 2.3104
6663.4 2.3341
6672 2.3492
6680.6 2.3530
6689.2 2.3568
6697.9 2.3655
6706.5 2.3784
6715.2 2.3889
6723.9 2.3865
6732.7 2.3796
6741.4 2.3635
6750.2 2.3413
6759 2.3154
6767.8 2.2611
6776.7 2.1999
6785.5 2.1406
6794.4 2.0817
6803.4 2.0413
6812.3 2.0171
6821.3 1.9954
6830.2 1.9612
6839.3 1.9131
6848.3 1.8915
6857.3 1.8643
6866.4 1.8401
6875.5 1.8362
6884.7 1.8374
6893.8 1.8429
6903 1.8473
6912.2 1.8353
6921.4 1.8411
6930.7 1.8451
6940 1.8114
6949.3 1.7718
6958.6 1.7529
6967.9 1.7386
6977.3 1.7269
6986.7 1.7197
6996.2 1.7137
7005.6 1.7035
7015.1 1.6884
7024.6 1.6644
7034.1 1.6589
7043.7 1.6796
7053.3 1.6918
7062.9 1.6874
7072.5 1.6788
7082.2 1.6848
7091.9 1.6836
7101.6 1.6807
7111.3 1.6826
7121.1 1.6805
7130.9 1.6757
7140.7 1.6711
7150.6 1.6616
7160.4 1.6587
7170.3 1.6572
7180.3 1.6407
7190.2 1.6290
7200.2 1.6208
7210.2 1.6166
7220.3 1.6197
7230.3 1.6260
7240.4 1.6448
7250.6 1.6283
7260.7 1.6108
7270.9 1.6295
7281.1 1.6462
7291.4 1.6348
7301.6 1.6298
7311.9 1.6532
7322.3 1.6757
7332.6 1.6788
7343 1.6791
7353.4 1.6726
7363.9 1.6829
7374.3 1.6973
7384.8 1.7023
7395.4 1.7180
7405.9 1.7185
7416.5 1.7053
7427.2 1.7040
7437.8 1.6934
7448.5 1.6858
7459.2 1.6774
7470 1.6721
7480.7 1.6711
7491.6 1.6786
7502.4 1.6871
7513.3 1.6829
7524.2 1.6833
7535.1 1.6738
7546.1 1.6539
7557.1 1.6597
7568.1 1.6738
7579.2 1.6736
7590.3 1.6766
7601.4 1.6754
7612.6 1.6726
7623.8 1.6905
7635 1.7045
7646.2 1.7115
7657.5 1.7147
7668.9 1.7061
7680.2 1.6934
7691.6 1.7048
7703.1 1.7118
7714.5 1.7078
7726 1.7013
7737.5 1.6996
7749.1 1.6934
7760.7 1.6879
7772.3 1.6965
7784 1.6996
7795.7 1.6800
7807.5 1.6754
7819.2 1.6819
7831 1.6879
7842.9 1.6938
7854.8 1.6993
7866.7 1.7142
7878.6 1.7364
7890.6 1.7417
7902.7 1.7362
7914.7 1.7589
7926.8 1.7955
7939 1.8346
7951.2 1.8525
7963.4 1.8757
7975.6 1.9061
7987.9 1.9204
8000.2 1.9438
8012.6 1.9774
8025 2.0207
8037.4 2.0691
8049.9 2.1066
8062.4 2.1471
8075 2.1951
8087.6 2.2543
8100.2 2.3164
8112.9 2.3679
8125.6 2.4447
8138.4 2.5237
8151.2 2.5856
8164 2.6366
8176.9 2.6865
8189.8 2.7251
8202.8 2.7753
8215.8 2.8375
8228.8 2.8732
8241.9 2.8756
8255 2.8826
8268.2 2.8949
8281.4 2.9237
8294.6 2.9559
8307.9 2.9571
8321.3 2.9239
8334.7 2.9148
8348.1 2.9003
8361.5 2.9125
8375 2.9364
8388.6 2.9167
8402.2 2.9053
8415.8 2.9220
8429.5 2.9225
8443.2 2.9105
8457 2.9073
8470.8 2.8926
8484.7 2.8572
8498.6 2.8131
8512.6 2.7877
8526.6 2.7875
8540.6 2.7971
8554.7 2.7832
8568.8 2.7478
8583 2.7026
8597.3 2.6421
8611.6 2.5892
8625.9 2.5863
8640.3 2.6090
8654.7 2.6435
8669.2 2.6920
8683.7 2.7325
8698.2 2.7665
8712.9 2.7959
8727.5 2.8019
8742.3 2.8153
8757 2.8729
8771.8 2.9105
8786.7 2.9150
8801.6 2.9280
8816.6 2.9342
8831.6 2.9215
8846.7 2.9065
8861.8 2.8973
8877 2.9247
8892.2 2.9424
8907.5 2.9352
8922.8 2.9385
8938.2 2.9449
8953.6 2.9385
8969.1 2.9093
8984.7 2.9095
9000.3 2.9043
9015.9 2.8889
9031.6 2.9315
9047.4 2.9653
9063.2 3.0019
9079.1 3.0217
9095 3.0369
9111 3.1153
9127 3.1732
9143.1 3.1816
9159.3 3.2179
9175.5 3.2574
9191.8 3.2991
9208.1 3.3318
9224.5 3.4038
9240.9 3.4379
9257.4 3.4628
9274 3.5151
9290.6 3.5876
9307.3 3.6422
9324 3.6849
9340.8 3.7288
9357.7 3.7761
9374.6 3.7749
9391.6 3.7714
9408.6 3.7970
9425.7 3.8472
9442.9 3.8771
9460.1 3.8878
9477.4 3.9120
9494.8 3.9877
9512.2 4.0096
9529.7 3.9807
9547.2 3.9814
9564.9 3.9951
9582.5 3.9939
9600.3 3.9834
9618.1 3.9520
9636 3.9242
9653.9 3.9072
9671.9 3.8633
9690 3.7848
9708.2 3.7312
9726.4 3.6694
9744.7 3.6285
9763 3.5912
9781.4 3.5550
9799.9 3.5414
9818.5 3.5288
9837.1 3.5010
9855.8 3.5000
9874.6 3.4943
9893.4 3.4902
9912.3 3.4735
9931.3 3.4416
9950.4 3.4519
9969.5 3.4412
9988.7 3.3725
10008 3.3046
10027.4 3.2474
10046.8 3.1830
10066.3 3.1378
10085.9 3.1081
10105.6 3.0873
10125.3 3.0629
10145.1 3.0247
10165 2.9766
10185 2.9397
10205 2.9073
10225.2 2.8863
10245.4 2.8473
10265.7 2.7971
10286 2.7755
10306.5 2.7612
10327 2.7466
10347.6 2.7336
10368.3 2.7438
10389.1 2.7425
10409.9 2.7079
10430.9 2.6849
10451.9 2.6815
10473 2.6650
10494.2 2.6446
10515.5 2.6399
10536.9 2.6239
10558.4 2.6279
10579.9 2.6200
10601.5 2.5786
10623.3 2.5524
10645.1 2.5576
10667 2.5427
10689 2.5243
10711.1 2.5370
10733.2 2.5392
10755.5 2.5287
10777.9 2.5016
10800.3 2.4921
10822.9 2.4846
10845.5 2.4694
10868.2 2.4542
10891.1 2.4587
10914 2.4642
10937 2.4709
10960.2 2.4908
10983.4 2.5098
11006.7 2.5183
11030.1 2.5330
11053.6 2.5354
11077.3 2.5232
11101 2.5177
11124.8 2.5160
11148.7 2.5150
11172.7 2.5303
11196.9 2.5466
11221.1 2.5602
11245.4 2.5751
11269.9 2.5631
11294.4 2.5362
11319.1 2.5322
11343.9 2.5409
11368.8 2.5480
11393.7 2.5317
11418.8 2.5272
11444 2.5253
11469.4 2.4956
11494.8 2.4595
11520.3 2.4280
11546 2.4310
11571.8 2.4365
11597.7 2.4265
11623.7 2.4176
11649.8 2.4043
11676 2.3906
11702.4 2.3724
11728.9 2.3373
11755.5 2.3116
11782.2 2.3037
11809 2.3121
11836 2.3004
11863 2.2720
11890.3 2.2356
11917.6 2.2007
11945 2.1810
11972.6 2.1597
12000.3 2.1282
12028.2 2.0973
12056.2 2.0846
12084.3 2.0642
12112.5 2.0336
12140.9 1.9849
12169.4 1.9291
12198 1.8800
12226.8 1.8549
12255.7 1.8226
12284.7 1.7733
12313.9 1.7164
12343.2 1.6865
12372.7 1.6793
12402.3 1.6626
12432 1.6743
12461.9 1.6977
12491.9 1.6986
12522.1 1.6931
12552.4 1.6803
12582.9 1.6674
12613.5 1.6268
12644.3 1.5926
12675.2 1.5926
12706.3 1.6245
12737.5 1.6694
12768.8 1.7006
12800.4 1.7106
12832.1 1.7028
12863.9 1.6896
12895.9 1.6741
12928.1 1.6442
12960.4 1.6273
12992.9 1.6156
13025.5 1.6018
13058.3 1.5903
13091.3 1.5804
13124.4 1.5754
13157.8 1.5699
13191.2 1.5613
13224.9 1.5632
13258.7 1.5563
13292.7 1.5355
13326.9 1.5164
13361.2 1.5231
13395.7 1.5104
13430.4 1.5041
13465.3 1.4845
13500.4 1.4895
13535.6 1.4924
13571.1 1.4872
13606.7 1.5104
13642.5 1.5009
13678.5 1.4835
13714.7 1.4767
13751.1 1.4647
13787.6 1.5061
13824.4 1.4949
13861.4 1.4546
13898.5 1.4473
13935.9 1.4075
13973.5 1.3726
14011.2 1.3995
