# Soil optical properties : Dark brown interior moist clay loam
# Colums : Wavelength(nm) Reflectance(%) Transmitance(%)
#
300 5.5837
400 5.5837
401 5.6616
402 5.8814
403 5.7606
404 5.7147
405 5.8849
406 6.0152
407 6.0391
408 6.0879
409 6.3745
410 6.1122
411 6.0056
412 6.0397
413 6.2736
414 6.4325
415 6.3492
416 6.3999
417 6.4677
418 6.5635
419 6.5635
420 6.6950
421 6.7053
422 6.8557
423 6.7750
424 7.1261
425 6.9943
426 7.2658
427 7.3294
428 7.3673
429 7.3295
430 7.3860
431 7.8520
432 7.4046
433 7.2594
434 7.7002
435 7.8586
436 7.9812
437 8.0114
438 8.1192
439 8.0114
440 8.2045
441 8.3045
442 8.2421
443 8.4403
444 8.4318
445 8.6510
446 8.6188
447 9.0303
448 9.0869
449 9.0367
450 9.0702
451 9.3524
452 9.3697
453 9.4566
454 9.5181
455 9.5718
456 9.6013
457 9.5838
458 9.6721
459 9.5795
460 9.5785
461 9.9501
462 9.7683
463 9.6960
464 9.8076
465 9.8219
466 9.9324
467 10.1430
468 10.1610
469 10.1620
470 10.3120
471 10.3290
472 10.2480
473 10.3040
474 10.3610
475 10.4340
476 10.6380
477 10.4730
478 10.8220
479 10.8220
480 10.9880
481 10.9080
482 11.0850
483 10.9000
484 10.9650
485 11.3370
486 11.5550
487 11.4310
488 11.4310
489 11.4510
490 11.7510
491 11.7040
492 11.8720
493 11.9570
494 11.8720
495 11.9770
496 11.9770
497 12.2610
498 12.6300
499 12.6910
500 12.6250
501 12.8300
502 12.7030
503 12.5490
504 12.4840
505 12.4390
506 12.7860
507 12.8020
508 13.0110
509 12.9000
510 13.3930
511 13.4740
512 13.4290
513 13.4740
514 13.6480
515 13.7410
516 13.8860
517 14.1430
518 14.2480
519 14.2810
520 14.6040
521 14.5920
522 14.3650
523 14.4210
524 14.4650
525 14.4890
526 14.7790
527 14.7500
528 14.7850
529 14.7850
530 14.9270
531 15.1960
532 15.3010
533 15.5140
534 15.6190
535 15.5640
536 15.4850
537 15.7670
538 16.1660
539 16.1930
540 16.2460
541 16.3810
542 16.1940
543 16.3500
544 16.7180
545 16.7150
546 16.7150
547 16.7430
548 17.1350
549 17.2360
550 17.4650
551 17.5430
552 17.4620
553 17.6140
554 18.0790
555 18.0230
556 17.9400
557 17.8580
558 17.9400
559 18.0710
560 18.4530
561 18.7070
562 18.9670
563 19.0700
564 19.1160
565 19.1090
566 19.4250
567 19.4540
568 19.2700
569 19.4320
570 19.6240
571 19.9350
572 19.9200
573 20.1590
574 20.5930
575 20.3900
576 20.7170
577 20.7170
578 20.4950
579 20.4950
580 20.5880
581 20.5880
582 20.9340
583 20.9450
584 21.0520
585 21.7530
586 21.8630
587 21.6320
588 21.8040
589 21.7540
590 21.6890
591 21.5990
592 21.5430
593 21.7470
594 21.6490
595 21.5400
596 22.1260
597 22.0040
598 22.0780
599 22.0120
600 21.9960
601 22.2150
602 22.3380
603 22.0840
604 22.1650
605 22.1320
606 22.4940
607 22.4610
608 21.9710
609 22.4610
610 22.2440
611 22.5000
612 22.3310
613 22.4440
614 22.3370
615 22.5090
616 22.3750
617 22.1500
618 22.2140
619 22.2460
620 22.3520
621 22.4460
622 22.3690
623 22.4790
624 22.4520
625 22.7170
626 22.8920
627 22.4140
628 22.4850
629 23.0260
630 23.0980
631 22.8850
632 22.9010
633 22.7660
634 23.1060
635 23.2380
636 23.1320
637 22.8200
638 22.3380
639 22.7330
640 23.2420
641 23.4080
642 23.4080
643 23.1790
644 22.8730
645 23.1460
646 23.0720
647 23.0070
648 23.2120
649 23.4810
650 23.5720
651 23.6820
652 23.4020
653 23.2070
654 23.3060
655 23.6780
656 23.7790
657 23.9930
658 23.8920
659 23.7470
660 23.9860
661 23.8820
662 23.8460
663 23.8840
664 24.0920
665 24.0240
666 23.9540
667 24.0550
668 24.1570
669 23.9540
670 23.7860
671 23.7860
672 23.9540
673 24.0550
674 24.4680
675 24.5090
676 24.3650
677 24.4340
678 24.5030
679 24.3660
680 24.1280
681 24.2990
682 24.2300
683 24.4690
684 24.7090
685 24.6750
686 24.7750
687 24.7400
688 24.8810
689 24.8780
690 24.7400
691 24.9830
692 24.9840
693 25.0190
694 24.9840
695 25.0870
696 25.1240
697 25.1220
698 25.4070
699 25.8970
700 25.0450
701 25.1480
702 25.0450
703 24.9410
704 25.1430
705 24.9070
706 25.0750
707 25.2450
708 25.4480
709 25.3790
710 25.3110
711 25.3110
712 25.2750
713 25.3110
714 25.5510
715 25.9580
716 25.7550
717 25.6850
718 25.5430
719 25.2730
720 25.1680
721 25.2670
722 25.4030
723 25.4710
724 25.3680
725 25.3700
726 25.3020
727 25.6710
728 25.6370
729 25.6370
730 26.1060
731 25.7680
732 26.1760
733 25.9440
734 26.0760
735 25.9750
736 26.1460
737 25.7370
738 25.7710
739 25.8370
740 26.1720
741 26.4010
742 26.5010
743 26.3770
744 26.3370
745 26.1020
746 26.1020
747 26.2670
748 26.2620
749 26.4020
750 26.4020
751 26.3670
752 26.3020
753 26.5010
754 26.5770
755 26.6770
756 26.8650
757 26.5660
758 26.3280
759 26.4920
760 26.6610
761 26.7360
762 26.9070
763 26.9780
764 26.7950
765 26.6500
766 26.8240
767 26.8880
768 26.7200
769 26.6270
770 26.8890
771 26.8900
772 27.0170
773 27.2220
774 27.3360
775 27.2790
776 27.0070
777 27.2640
778 27.2150
779 27.3850
780 27.2230
781 27.3920
782 27.6360
783 27.1240
784 27.1940
785 27.3720
786 27.5000
787 27.0960
788 27.2940
789 27.5210
790 27.4930
791 27.3160
792 27.4570
793 27.9620
794 27.8900
795 28.0990
796 27.9990
797 27.7080
798 27.6790
799 27.6790
800 27.6790
804 27.8460
808 27.9120
812 28.0750
816 28.1320
820 28.0290
824 28.0690
828 27.8500
832 27.9690
836 27.9170
840 27.9170
844 27.6420
848 27.6420
852 27.6140
856 27.6140
860 27.6520
864 27.4840
868 27.4670
872 27.5320
876 27.5320
880 27.3350
884 27.6350
888 27.4930
892 27.4490
896 27.3830
900 27.4760
904 27.5690
908 27.4830
912 27.8280
916 27.6960
920 27.7510
924 27.7440
928 27.9180
932 27.8900
936 27.8340
940 27.7310
944 27.8810
948 27.9090
952 27.9650
956 28.1430
960 28.0580
964 27.8830
968 28.1260
972 28.1080
976 28.0240
980 27.6820
984 27.7940
988 28.3320
992 28.0300
996 28.1730
1000 28.3320
1004 28.3320
1008 28.3480
1012 28.4990
1016 28.4990
1020 28.6050
1024 28.5510
1028 28.4080
1032 28.2010
1036 28.3480
1040 28.4330
1044 28.6020
1048 28.5530
1052 28.9140
1056 28.8490
1060 28.7240
1064 28.7320
1068 28.9700
1072 28.8390
1076 28.9060
1080 29.0570
1084 29.0880
1088 29.3350
1092 29.3700
1096 29.2310
1100 28.9860
1104 28.8280
1108 29.3050
1112 29.2950
1116 29.6370
1120 29.8220
1124 29.9470
1128 29.6370
1132 29.9730
1136 30.0110
1140 30.1700
1144 29.6420
1148 29.6820
1152 29.7500
1156 29.8420
1160 29.9680
1164 30.2150
1168 30.3380
1172 30.4620
1176 30.5220
1180 30.6160
1184 30.7080
1188 30.8270
1192 30.9200
1196 30.9200
1200 31.0140
1204 31.0140
1208 31.1970
1212 31.4160
1216 31.3220
1220 31.3840
1224 31.2900
1228 31.5740
1232 31.7020
1236 31.6700
1240 31.7000
1244 31.7640
1248 32.1410
1252 31.8860
1256 31.7580
1260 31.7770
1264 31.6620
1268 31.7900
1272 32.0090
1276 32.0360
1280 31.9690
1284 32.2470
1288 32.5550
1292 32.7090
1296 32.9090
1300 32.5430
1304 32.5670
1308 32.7690
1312 32.8010
1316 32.6490
1320 32.7140
1324 32.7790
1328 32.5850
1332 32.6170
1336 32.7830
1340 33.2080
1344 32.7610
1348 32.6850
1352 32.6450
1356 32.9910
1360 32.9070
1364 32.6170
1368 32.5800
1372 32.8540
1376 32.7960
1380 32.6530
1384 32.8760
1388 32.3730
1392 32.0840
1396 32.0580
1400 31.7370
1404 31.6990
1408 31.6610
1412 31.8460
1416 32.2190
1420 32.4110
1424 32.4440
1428 32.5380
1432 32.6260
1436 32.5280
1440 32.6630
1444 32.8160
1448 32.9820
1452 33.4410
1456 33.8220
1460 33.8680
1464 33.9490
1468 33.9150
1472 34.1610
1476 34.0950
1480 34.1640
1484 34.1990
1488 34.3680
1492 34.5600
1496 34.1440
1500 34.1930
1504 34.5700
1508 34.6630
1512 34.5600
1516 34.5940
1520 34.5250
1524 34.6180
1528 34.7030
1532 34.5490
1536 34.7030
1540 35.0220
1544 35.2350
1548 35.2700
1552 35.5470
1556 35.2660
1560 35.0950
1564 35.2350
1568 35.1990
1572 34.7600
1576 34.9330
1580 35.0500
1584 35.1900
1588 35.3530
1592 35.2920
1596 35.6550
1600 35.9390
1604 35.7610
1608 35.6120
1612 35.6620
1616 35.9750
1620 35.9110
1624 36.1540
1628 36.1270
1632 35.9260
1636 36.0190
1640 36.0240
1644 36.3380
1648 36.4260
1652 36.4990
1656 36.3170
1660 36.0240
1664 36.1320
1668 36.2450
1672 36.2090
1676 36.7980
1680 36.5030
1684 36.3580
1688 36.2860
1692 36.1220
1696 36.1730
1700 36.2650
1704 36.4260
1708 36.4830
1712 36.6090
1716 36.7930
1720 36.6260
1724 36.4000
1728 36.2250
1732 36.2810
1736 36.4300
1740 36.6280
1744 36.6640
1748 36.7010
1752 36.7740
1756 36.5890
1760 36.5890
1764 36.5520
1768 36.7010
1772 36.5160
1776 36.5890
1780 36.6620
1784 36.5520
1788 36.6980
1792 36.6050
1796 36.8840
1800 36.8670
1804 36.6980
1808 37.0140
1812 36.9400
1816 36.9770
1820 36.8470
1824 36.8470
1828 36.6590
1832 36.2290
1836 36.1200
1840 36.3160
1844 36.4260
1848 36.8790
1852 37.4030
1856 37.3470
1860 36.8940
1864 36.1530
1868 35.4830
1872 35.1300
1876 34.9130
1880 34.6550
1884 34.2320
1888 33.6970
1892 32.8930
1896 32.1810
1900 31.1590
1904 30.2860
1908 29.9300
1912 29.8000
1916 29.7680
1920 30.4160
1924 30.8680
1928 31.3170
1932 31.7040
1936 32.1060
1940 32.0410
1944 32.1650
1948 32.3840
1952 32.5410
1956 32.5690
1960 32.7590
1964 32.8880
1968 33.1480
1972 33.5040
1976 33.7300
1980 33.8960
1984 34.2910
1988 34.3870
1992 34.2840
1996 34.6630
2000 34.6310
2004 35.0230
2008 35.4810
2012 35.8660
2016 36.0370
2020 36.2840
2024 36.3980
2028 36.3220
2032 36.4360
2036 36.8630
2040 36.9220
2044 37.0380
2048 37.1350
2052 37.2910
2056 37.2330
2060 37.4490
2064 37.5850
2068 37.4270
2072 37.4860
2076 37.7220
2079.5 37.7220
2080.3 37.7850
2081.2 38.0040
2082 38.2210
2082.8 38.1440
2083.7 38.1380
2084.5 38.0700
2085.3 37.9850
2086.2 37.9250
2087 37.8590
2087.9 37.8050
2088.7 37.7590
2089.5 37.7200
2090.4 37.6940
2091.2 37.6850
2092.1 37.6940
2092.9 37.7220
2093.8 37.7640
2094.6 37.8160
2095.5 37.8700
2096.3 37.9180
2097.1 37.9540
2098 37.9740
2098.8 37.9760
2099.7 37.9610
2100.5 37.9330
2101.4 37.8980
2102.3 37.8610
2103.1 37.8260
2104 37.8000
2104.8 37.7830
2105.7 37.7740
2106.5 37.7710
2107.4 37.7730
2108.2 37.7780
2109.1 37.7840
2110 37.7920
2110.8 37.8010
2111.7 37.8070
2112.5 37.8090
2113.4 37.8070
2114.3 37.8020
2115.1 37.7980
2116 37.8020
2116.8 37.8190
2117.7 37.8480
2118.6 37.8840
2119.4 37.9150
2120.3 37.9320
2121.2 37.9260
2122 37.8980
2122.9 37.8580
2123.8 37.8160
2124.7 37.7860
2125.5 37.7730
2126.4 37.7760
2127.3 37.7890
2128.1 37.8020
2129 37.8130
2129.9 37.8190
2130.8 37.8200
2131.6 37.8210
2132.5 37.8250
2133.4 37.8350
2134.3 37.8530
2135.2 37.8800
2136 37.9110
2136.9 37.9410
2137.8 37.9620
2138.7 37.9670
2139.6 37.9560
2140.4 37.9350
2141.3 37.9150
2142.2 37.9080
2143.1 37.9190
2144 37.9430
2144.9 37.9720
2145.8 37.9920
2146.6 37.9940
2147.5 37.9750
2148.4 37.9410
2149.3 37.9010
2150.2 37.8650
2151.1 37.8400
2152 37.8300
2152.9 37.8320
2153.8 37.8450
2154.7 37.8630
2155.6 37.8840
2156.5 37.9020
2157.4 37.9110
2158.3 37.9080
2159.2 37.8890
2160.1 37.8520
2161 37.8000
2161.9 37.7380
2162.8 37.6740
2163.7 37.6150
2164.6 37.5690
2165.5 37.5400
2166.4 37.5330
2167.3 37.5440
2168.2 37.5710
2169.1 37.6050
2170 37.6380
2170.9 37.6610
2171.8 37.6680
2172.7 37.6580
2173.6 37.6320
2174.6 37.5950
2175.5 37.5530
2176.4 37.5120
2177.3 37.4780
2178.2 37.4540
2179.1 37.4430
2180 37.4430
2181 37.4520
2181.9 37.4620
2182.8 37.4640
2183.7 37.4510
2184.6 37.4160
2185.6 37.3600
2186.5 37.2870
2187.4 37.2090
2188.3 37.1370
2189.3 37.0820
2190.2 37.0480
2191.1 37.0340
2192 37.0330
2193 37.0350
2193.9 37.0300
2194.8 37.0150
2195.7 36.9860
2196.7 36.9450
2197.6 36.8940
2198.5 36.8330
2199.5 36.7640
2200.4 36.6860
2201.3 36.6000
2202.3 36.5090
2203.2 36.4210
2204.1 36.3440
2205.1 36.2860
2206 36.2540
2207 36.2480
2207.9 36.2640
2208.8 36.2930
2209.8 36.3230
2210.7 36.3450
2211.7 36.3530
2212.6 36.3460
2213.6 36.3280
2214.5 36.3040
2215.5 36.2800
2216.4 36.2600
2217.3 36.2490
2218.3 36.2480
2219.2 36.2570
2220.2 36.2760
2221.1 36.3040
2222.1 36.3370
2223.1 36.3700
2224 36.3980
2225 36.4140
2225.9 36.4160
2226.9 36.4030
2227.8 36.3780
2228.8 36.3480
2229.7 36.3190
2230.7 36.2960
2231.7 36.2810
2232.6 36.2710
2233.6 36.2620
2234.5 36.2480
2235.5 36.2270
2236.5 36.1960
2237.4 36.1580
2238.4 36.1150
2239.4 36.0690
2240.3 36.0220
2241.3 35.9760
2242.3 35.9320
2243.3 35.8900
2244.2 35.8540
2245.2 35.8220
2246.2 35.7980
2247.1 35.7810
2248.1 35.7710
2249.1 35.7680
2250.1 35.7700
2251 35.7760
2252 35.7820
2253 35.7870
2254 35.7880
2255 35.7860
2255.9 35.7780
2256.9 35.7650
2257.9 35.7480
2258.9 35.7260
2259.9 35.7010
2260.9 35.6770
2261.8 35.6580
2262.8 35.6500
2263.8 35.6540
2264.8 35.6700
2265.8 35.6910
2266.8 35.7110
2267.8 35.7220
2268.8 35.7170
2269.8 35.6970
2270.8 35.6640
2271.8 35.6240
2272.8 35.5800
2273.8 35.5360
2274.7 35.4930
2275.7 35.4480
2276.7 35.4000
2277.7 35.3490
2278.7 35.2960
2279.8 35.2440
2280.8 35.1970
2281.8 35.1570
2282.8 35.1230
2283.8 35.0910
2284.8 35.0550
2285.8 35.0100
2286.8 34.9520
2287.8 34.8810
2288.8 34.8020
2289.8 34.7210
2290.8 34.6440
2291.8 34.5760
2292.9 34.5150
2293.9 34.4620
2294.9 34.4140
2295.9 34.3690
2296.9 34.3300
2297.9 34.2960
2299 34.2650
2300 34.2340
2301 34.1990
2302 34.1550
2303 34.1050
2304.1 34.0500
2305.1 34.0000
2306.1 33.9600
2307.1 33.9330
2308.2 33.9160
2309.2 33.8990
2310.2 33.8730
2311.3 33.8300
2312.3 33.7690
2313.3 33.6950
2314.4 33.6190
2315.4 33.5510
2316.4 33.4970
2317.5 33.4590
2318.5 33.4320
2319.5 33.4050
2320.6 33.3710
2321.6 33.3250
2322.6 33.2670
2323.7 33.2030
2324.7 33.1400
2325.8 33.0870
2326.8 33.0490
2327.9 33.0240
2328.9 33.0100
2330 33.0010
2331 32.9910
2332.1 32.9780
2333.1 32.9580
2334.2 32.9300
2335.2 32.8960
2336.3 32.8570
2337.3 32.8190
2338.4 32.7870
2339.4 32.7700
2340.5 32.7720
2341.5 32.7950
2342.6 32.8340
2343.6 32.8820
2344.7 32.9270
2345.8 32.9620
2346.8 32.9820
2347.9 32.9880
2349 32.9870
2350 32.9840
2351.1 32.9840
2352.2 32.9880
2353.2 32.9930
2354.3 32.9970
2355.4 32.9990
2356.4 33.0000
2357.5 33.0030
2358.6 33.0130
2359.7 33.0290
2360.7 33.0520
2361.8 33.0780
2362.9 33.1030
2364 33.1230
2365 33.1350
2366.1 33.1380
2367.2 33.1340
2368.3 33.1220
2369.4 33.1030
2370.4 33.0820
2371.5 33.0590
2372.6 33.0370
2373.7 33.0150
2374.8 32.9930
2375.9 32.9680
2377 32.9410
2378.1 32.9100
2379.1 32.8780
2380.2 32.8490
2381.3 32.8260
2382.4 32.8100
2383.5 32.8010
2384.6 32.7950
2385.7 32.7870
2386.8 32.7730
2387.9 32.7520
2389 32.7240
2390.1 32.6940
2391.2 32.6620
2392.3 32.6320
2393.4 32.6030
2394.5 32.5780
2395.6 32.5580
2396.7 32.5430
2397.9 32.5350
2399 32.5290
2400.1 32.5230
2401.2 32.5090
2402.3 32.4850
2403.4 32.4490
2404.5 32.4070
2405.6 32.3660
2406.8 32.3310
2407.9 32.3040
2409 32.2840
2410.1 32.2650
2411.2 32.2430
2412.4 32.2160
2413.5 32.1870
2414.6 32.1590
2415.7 32.1340
2416.9 32.1090
2418 32.0790
2419.1 32.0400
2420.2 31.9890
2421.4 31.9280
2422.5 31.8630
2423.6 31.8010
2424.8 31.7470
2425.9 31.6990
2427 31.6510
2428.2 31.5970
2429.3 31.5330
2430.5 31.4570
2431.6 31.3750
2432.7 31.2960
2433.9 31.2270
2435 31.1720
2436.2 31.1320
2437.3 31.1030
2438.5 31.0800
2439.6 31.0590
2440.8 31.0380
2441.9 31.0130
2443.1 30.9820
2444.2 30.9440
2445.4 30.8960
2446.5 30.8400
2447.7 30.7780
2448.8 30.7130
2450 30.6510
2451.1 30.5940
2452.3 30.5430
2453.5 30.4970
2454.6 30.4540
2455.8 30.4110
2456.9 30.3650
2458.1 30.3150
2459.3 30.2630
2460.4 30.2130
2461.6 30.1680
2462.8 30.1310
2464 30.1030
2465.1 30.0790
2466.3 30.0550
2467.5 30.0240
2468.6 29.9840
2469.8 29.9340
2471 29.8780
2472.2 29.8200
2473.4 29.7650
2474.5 29.7150
2475.7 29.6710
2476.9 29.6320
2478.1 29.5940
2479.3 29.5560
2480.5 29.5160
2481.6 29.4730
2482.8 29.4270
2484 29.3790
2485.2 29.3320
2486.4 29.2890
2487.6 29.2510
2488.8 29.2200
2490 29.1970
2491.2 29.1790
2492.4 29.1650
2493.6 29.1520
2494.8 29.1350
2496 29.1120
2497.2 29.0780
2498.4 29.0330
2499.6 28.9790
2500.8 28.9210
2502 28.8680
2503.2 28.8280
2504.4 28.8060
2505.6 28.8040
2506.8 28.8150
2508.1 28.8320
2509.3 28.8480
2510.5 28.8540
2511.7 28.8480
2512.9 28.8310
2514.1 28.8080
2515.4 28.7810
2516.6 28.7530
2517.8 28.7270
2519 28.7010
2520.2 28.6770
2521.5 28.6540
2522.7 28.6320
2523.9 28.6090
2525.2 28.5830
2526.4 28.5510
2527.6 28.5100
2528.9 28.4620
2530.1 28.4100
2531.3 28.3610
2532.6 28.3230
2533.8 28.3020
2535 28.2970
2536.3 28.3040
2537.5 28.3140
2538.8 28.3190
2540 28.3180
2541.3 28.3100
2542.5 28.2980
2543.7 28.2820
2545 28.2610
2546.2 28.2360
2547.5 28.2110
2548.7 28.2040
2550 28.2330
2551.3 28.3110
2552.5 28.4280
2553.8 28.5500
2555 28.6230
2556.3 28.5970
2557.5 28.4530
2558.8 28.2140
2560.1 27.9430
2561.3 27.7210
2562.6 27.6100
2563.9 27.6300
2565.1 27.7510
2566.4 27.9100
2567.7 28.0390
2569 28.0950
2570.2 28.0780
2571.5 28.0200
2572.8 27.9670
2574.1 27.9490
2575.3 27.9640
2576.6 27.9840
2577.9 27.9660
2579.2 27.8840
2580.5 27.7460
2581.7 27.5960
2583 27.4900
2584.3 27.4660
2585.6 27.5120
2586.9 27.5650
2588.2 27.5430
2589.5 27.3820
2590.8 27.0860
2592.1 26.7350
2593.4 26.4520
2594.7 26.3490
2596 26.4660
2597.3 26.7510
2598.6 27.0800
2599.9 27.3170
2601.2 27.3740
2602.5 27.2620
2603.8 27.0690
2605.1 26.9140
2606.4 26.8880
2607.7 27.0110
2609 27.2250
2610.3 27.4200
2611.7 27.4990
2613 27.4150
2614.3 27.1970
2615.6 26.9310
2616.9 26.7200
2618.3 26.6380
2619.6 26.7000
2620.9 26.8500
2622.2 26.9920
2623.6 27.0370
2624.9 26.9370
2626.2 26.7090
2627.5 26.4280
2628.9 26.1970
2630.2 26.1020
2631.5 26.1810
2632.9 26.4110
2634.2 26.7210
2635.6 27.0230
2636.9 27.2370
2638.2 27.3220
2639.6 27.2790
2640.9 27.1420
2642.3 26.9590
2643.6 26.7720
2645 26.6040
2646.3 26.4520
2647.7 26.3050
2649 26.1490
2650.4 25.9800
2651.7 25.8090
2653.1 25.6500
2654.5 25.5080
2655.8 25.3670
2657.2 25.1910
2658.5 24.9310
2659.9 24.5450
2661.3 24.0210
2662.6 23.3890
2664 22.7220
2665.4 22.1030
2666.7 21.6090
2668.1 21.2770
2669.5 21.0960
2670.9 21.0080
2672.2 20.9360
2673.6 20.8110
2675 20.5910
2676.4 20.2660
2677.8 19.8460
2679.1 19.3500
2680.5 18.7870
2681.9 18.1520
2683.3 17.4320
2684.7 16.6190
2686.1 15.7160
2687.5 14.7420
2688.9 13.7290
2690.3 12.7160
2691.7 11.7430
2693.1 10.8400
2694.5 10.0280
2695.9 9.3127
2697.3 8.6909
2698.7 8.1509
2700.1 7.6794
2701.5 7.2651
2702.9 6.9028
2704.3 6.5930
2705.7 6.3401
2707.1 6.1470
2708.5 6.0132
2710 5.9294
2711.4 5.8772
2712.8 5.8325
2714.2 5.7715
2715.6 5.6780
2717.1 5.5493
2718.5 5.3972
2719.9 5.2434
2721.3 5.1106
2722.8 5.0122
2724.2 4.9490
2725.6 4.9082
2727.1 4.8694
2728.5 4.8120
2729.9 4.7219
2731.4 4.5945
2732.8 4.4358
2734.3 4.2585
2735.7 4.0798
2737.1 3.9162
2738.6 3.7805
2740 3.6797
2741.5 3.6123
2742.9 3.5693
2744.4 3.5378
2745.8 3.5019
2747.3 3.4499
2748.8 3.3765
2750.2 3.2839
2751.7 3.1811
2753.1 3.0793
2754.6 2.9890
2756.1 2.9153
2757.5 2.8586
2759 2.8154
2760.5 2.7817
2761.9 2.7539
2763.4 2.7329
2764.9 2.7202
2766.4 2.7192
2767.8 2.7317
2769.3 2.7571
2770.8 2.7920
2772.3 2.8313
2773.8 2.8699
2775.2 2.9031
2776.7 2.9282
2778.2 2.9441
2779.7 2.9521
2781.2 2.9529
2782.7 2.9490
2784.2 2.9424
2785.7 2.9353
2787.2 2.9307
2788.7 2.9294
2790.2 2.9319
2791.7 2.9368
2793.2 2.9404
2794.7 2.9387
2796.2 2.9285
2797.7 2.9089
2799.2 2.8835
2800.7 2.8586
2802.2 2.8413
2803.8 2.8376
2805.3 2.8484
2806.8 2.8696
2808.3 2.8928
2809.8 2.9087
2811.4 2.9116
2812.9 2.9006
2814.4 2.8806
2815.9 2.8594
2817.5 2.8464
2819 2.8469
2820.5 2.8625
2822.1 2.8906
2823.6 2.9258
2825.2 2.9619
2826.7 2.9939
2828.2 3.0193
2829.8 3.0386
2831.3 3.0532
2832.9 3.0664
2834.4 3.0806
2836 3.0974
2837.5 3.1172
2839.1 3.1392
2840.6 3.1623
2842.2 3.1851
2843.7 3.2058
2845.3 3.2224
2846.9 3.2339
2848.4 3.2397
2850 3.2405
2851.6 3.2383
2853.1 3.2366
2854.7 3.2383
2856.3 3.2444
2857.9 3.2541
2859.4 3.2646
2861 3.2720
2862.6 3.2734
2864.2 3.2690
2865.8 3.2605
2867.3 3.2512
2868.9 3.2432
2870.5 3.2378
2872.1 3.2331
2873.7 3.2270
2875.3 3.2165
2876.9 3.2009
2878.5 3.1821
2880.1 3.1650
2881.7 3.1536
2883.3 3.1518
2884.9 3.1597
2886.5 3.1736
2888.1 3.1865
2889.7 3.1914
2891.3 3.1819
2892.9 3.1577
2894.6 3.1218
2896.2 3.0818
2897.8 3.0459
2899.4 3.0205
2901 3.0080
2902.7 3.0066
2904.3 3.0112
2905.9 3.0163
2907.5 3.0185
2909.2 3.0159
2910.8 3.0102
2912.4 3.0029
2914.1 2.9963
2915.7 2.9907
2917.4 2.9861
2919 2.9807
2920.7 2.9751
2922.3 2.9690
2923.9 2.9646
2925.6 2.9631
2927.2 2.9651
2928.9 2.9700
2930.6 2.9768
2932.2 2.9831
2933.9 2.9873
2935.5 2.9890
2937.2 2.9880
2938.9 2.9858
2940.5 2.9844
2942.2 2.9851
2943.9 2.9880
2945.5 2.9917
2947.2 2.9946
2948.9 2.9946
2950.6 2.9910
2952.3 2.9846
2953.9 2.9775
2955.6 2.9724
2957.3 2.9719
2959 2.9758
2960.7 2.9827
2962.4 2.9905
2964.1 2.9980
2965.8 3.0046
2967.5 3.0117
2969.2 3.0207
2970.9 3.0325
2972.6 3.0469
2974.3 3.0622
2976 3.0779
2977.7 3.0930
2979.4 3.1081
2981.1 3.1228
2982.8 3.1372
2984.5 3.1492
2986.3 3.1570
2988 3.1584
2989.7 3.1545
2991.4 3.1467
2993.2 3.1382
2994.9 3.1335
2996.6 3.1360
2998.4 3.1492
3000.1 3.1743
3001.8 3.2107
3003.6 3.2556
3005.3 3.3035
3007 3.3489
3008.8 3.3857
3010.5 3.4128
3012.3 3.4302
3014 3.4404
3015.8 3.4480
3017.6 3.4558
3019.3 3.4648
3021.1 3.4751
3022.8 3.4866
3024.6 3.5002
3026.4 3.5176
3028.1 3.5398
3029.9 3.5657
3031.7 3.5928
3033.4 3.6167
3035.2 3.6338
3037 3.6428
3038.8 3.6467
3040.6 3.6492
3042.3 3.6560
3044.1 3.6694
3045.9 3.6894
3047.7 3.7126
3049.5 3.7341
3051.3 3.7500
3053.1 3.7578
3054.9 3.7598
3056.7 3.7590
3058.5 3.7610
3060.3 3.7693
3062.1 3.7854
3063.9 3.8071
3065.7 3.8310
3067.5 3.8533
3069.4 3.8723
3071.2 3.8872
3073 3.9004
3074.8 3.9148
3076.6 3.9321
3078.5 3.9529
3080.3 3.9761
3082.1 4.0005
3084 4.0239
3085.8 4.0452
3087.6 4.0647
3089.5 4.0828
3091.3 4.1020
3093.2 4.1230
3095 4.1479
3096.9 4.1760
3098.7 4.2070
3100.6 4.2378
3102.4 4.2671
3104.3 4.2927
3106.1 4.3147
3108 4.3342
3109.9 4.3545
3111.7 4.3789
3113.6 4.4114
3115.5 4.4529
3117.4 4.5034
3119.2 4.5598
3121.1 4.6174
3123 4.6706
3124.9 4.7161
3126.8 4.7529
3128.6 4.7837
3130.5 4.8120
3132.4 4.8437
3134.3 4.8813
3136.2 4.9260
3138.1 4.9763
3140 5.0293
3141.9 5.0840
3143.8 5.1384
3145.7 5.1929
3147.6 5.2475
3149.5 5.3013
3151.5 5.3540
3153.4 5.4043
3155.3 5.4512
3157.2 5.4951
3159.1 5.5381
3161.1 5.5823
3163 5.6299
3164.9 5.6826
3166.9 5.7407
3168.8 5.8030
3170.7 5.8674
3172.7 5.9316
3174.6 5.9929
3176.6 6.0500
3178.5 6.1028
3180.5 6.1528
3182.4 6.2016
3184.4 6.2512
3186.3 6.3032
3188.3 6.3576
3190.2 6.4150
3192.2 6.4741
3194.2 6.5349
3196.1 6.5972
3198.1 6.6614
3200.1 6.7275
3202.1 6.7956
3204 6.8655
3206 6.9358
3208 7.0061
3210 7.0762
3212 7.1460
3214 7.2156
3216 7.2846
3218 7.3520
3220 7.4165
3222 7.4768
3224 7.5332
3226 7.5862
3228 7.6384
3230 7.6921
3232 7.7510
3234 7.8157
3236.1 7.8869
3238.1 7.9631
3240.1 8.0415
3242.1 8.1191
3244.2 8.1931
3246.2 8.2617
3248.2 8.3252
3250.3 8.3843
3252.3 8.4421
3254.3 8.5024
3256.4 8.5688
3258.4 8.6440
3260.5 8.7275
3262.5 8.8169
3264.6 8.9084
3266.6 8.9961
3268.7 9.0759
3270.8 9.1462
3272.8 9.2085
3274.9 9.2673
3277 9.3279
3279 9.3945
3281.1 9.4699
3283.2 9.5522
3285.3 9.6369
3287.4 9.7182
3289.4 9.7907
3291.5 9.8520
3293.6 9.9026
3295.7 9.9465
3297.8 9.9902
3299.9 10.0390
3302 10.0960
3304.1 10.1610
3306.2 10.2310
3308.3 10.3020
3310.4 10.3710
3312.6 10.4360
3314.7 10.4970
3316.8 10.5570
3318.9 10.6160
3321 10.6740
3323.2 10.7300
3325.3 10.7780
3327.4 10.8140
3329.6 10.8300
3331.7 10.8220
3333.9 10.7850
3336 10.7200
3338.2 10.6340
3340.3 10.5330
3342.5 10.4320
3344.6 10.3450
3346.8 10.2820
3348.9 10.2540
3351.1 10.2640
3353.3 10.3110
3355.4 10.3880
3357.6 10.4880
3359.8 10.6000
3362 10.7170
3364.1 10.8290
3366.3 10.9310
3368.5 11.0210
3370.7 11.0960
3372.9 11.1600
3375.1 11.2150
3377.3 11.2670
3379.5 11.3200
3381.7 11.3760
3383.9 11.4360
3386.1 11.4980
3388.3 11.5600
3390.6 11.6210
3392.8 11.6800
3395 11.7360
3397.2 11.7900
3399.4 11.8410
3401.7 11.8890
3403.9 11.9330
3406.1 11.9730
3408.4 12.0110
3410.6 12.0500
3412.9 12.0940
3415.1 12.1440
3417.4 12.2040
3419.6 12.2740
3421.9 12.3530
3424.1 12.4410
3426.4 12.5330
3428.7 12.6270
3430.9 12.7190
3433.2 12.8050
3435.5 12.8810
3437.8 12.9480
3440 13.0050
3442.3 13.0550
3444.6 13.1020
3446.9 13.1470
3449.2 13.1890
3451.5 13.2240
3453.8 13.2470
3456.1 13.2480
3458.4 13.2210
3460.7 13.1620
3463 13.0730
3465.3 12.9610
3467.7 12.8380
3470 12.7230
3472.3 12.6320
3474.6 12.5810
3477 12.5750
3479.3 12.6170
3481.6 12.6980
3484 12.8090
3486.3 12.9380
3488.7 13.0770
3491 13.2200
3493.4 13.3650
3495.7 13.5110
3498.1 13.6610
3500.4 13.8180
3502.8 13.9850
3505.2 14.1660
3507.5 14.3660
3509.9 14.5900
3512.3 14.8420
3514.7 15.1240
3517.1 15.4360
3519.5 15.7730
3521.8 16.1260
3524.2 16.4820
3526.6 16.8270
3529 17.1490
3531.4 17.4400
3533.8 17.6930
3536.3 17.9110
3538.7 18.0980
3541.1 18.2610
3543.5 18.4070
3545.9 18.5440
3548.4 18.6780
3550.8 18.8090
3553.2 18.9400
3555.7 19.0670
3558.1 19.1880
3560.5 19.3000
3563 19.4060
3565.4 19.5070
3567.9 19.6090
3570.4 19.7190
3572.8 19.8400
3575.3 19.9730
3577.7 20.1130
3580.2 20.2550
3582.7 20.3910
3585.2 20.5180
3587.6 20.6330
3590.1 20.7380
3592.6 20.8360
3595.1 20.9320
3597.6 21.0280
3600.1 21.1260
3602.6 21.2270
3605.1 21.3280
3607.6 21.4280
3610.1 21.5250
3612.7 21.6190
3615.2 21.7080
3617.7 21.7930
3620.2 21.8740
3622.7 21.9520
3625.3 22.0280
3627.8 22.1030
3630.4 22.1790
3632.9 22.2600
3635.5 22.3450
3638 22.4360
3640.6 22.5280
3643.1 22.6200
3645.7 22.7060
3648.2 22.7840
3650.8 22.8540
3653.4 22.9160
3656 22.9740
3658.5 23.0290
3661.1 23.0840
3663.7 23.1390
3666.3 23.1950
3668.9 23.2510
3671.5 23.3090
3674.1 23.3690
3676.7 23.4300
3679.3 23.4920
3681.9 23.5550
3684.5 23.6170
3687.2 23.6760
3689.8 23.7310
3692.4 23.7810
3695 23.8280
3697.7 23.8740
3700.3 23.9230
3703 23.9760
3705.6 24.0340
3708.3 24.0950
3710.9 24.1570
3713.6 24.2150
3716.2 24.2670
3718.9 24.3120
3721.6 24.3530
3724.2 24.3930
3726.9 24.4350
3729.6 24.4800
3732.3 24.5280
3735 24.5740
3737.7 24.6150
3740.4 24.6480
3743.1 24.6690
3745.8 24.6800
3748.5 24.6810
3751.2 24.6740
3753.9 24.6600
3756.6 24.6410
3759.4 24.6140
3762.1 24.5830
3764.8 24.5460
3767.6 24.5050
3770.3 24.4610
3773 24.4160
3775.8 24.3660
3778.5 24.3080
3781.3 24.2360
3784.1 24.1420
3786.8 24.0180
3789.6 23.8560
3792.4 23.6540
3795.1 23.4160
3797.9 23.1510
3800.7 22.8730
3803.5 22.5970
3806.3 22.3360
3809.1 22.1000
3811.9 21.8890
3814.7 21.6980
3817.5 21.5180
3820.3 21.3400
3823.1 21.1550
3825.9 20.9610
3828.8 20.7580
3831.6 20.5520
3834.4 20.3520
3837.3 20.1660
3840.1 19.9990
3843 19.8560
3845.8 19.7360
3848.7 19.6350
3851.5 19.5500
3854.4 19.4760
3857.3 19.4120
3860.1 19.3520
3863 19.2960
3865.9 19.2420
3868.8 19.1910
3871.7 19.1430
3874.6 19.1020
3877.5 19.0690
3880.4 19.0440
3883.3 19.0250
3886.2 19.0080
3889.1 18.9850
3892 18.9510
3894.9 18.9000
3897.9 18.8300
3900.8 18.7430
3903.7 18.6400
3906.7 18.5250
3909.6 18.4030
3912.6 18.2770
3915.5 18.1550
3918.5 18.0390
3921.4 17.9310
3924.4 17.8230
3927.4 17.7030
3930.4 17.5510
3933.3 17.3470
3936.3 17.0780
3939.3 16.7390
3942.3 16.3370
3945.3 15.8910
3948.3 15.4260
3951.3 14.9700
3954.4 14.5460
3957.4 14.1700
3960.4 13.8510
3963.4 13.5910
3966.5 13.3890
3969.5 13.2430
3972.5 13.1530
3975.6 13.1240
3978.6 13.1610
3981.7 13.2720
3984.7 13.4650
3987.8 13.7440
3990.9 14.1060
3994 14.5450
3997 15.0470
4000.1 15.5970
4003.2 16.1750
4006.3 16.7620
4009.4 17.3400
4012.5 17.8950
4015.6 18.4160
4018.7 18.9020
4021.8 19.3570
4025 19.7890
4028.1 20.2090
4031.2 20.6230
4034.4 21.0350
4037.5 21.4390
4040.6 21.8290
4043.8 22.1920
4047 22.5190
4050.1 22.8020
4053.3 23.0400
4056.5 23.2360
4059.6 23.3960
4062.8 23.5280
4066 23.6390
4069.2 23.7370
4072.4 23.8240
4075.6 23.9010
4078.8 23.9680
4082 24.0260
4085.2 24.0710
4088.4 24.1040
4091.7 24.1270
4094.9 24.1400
4098.1 24.1480
4101.4 24.1530
4104.6 24.1570
4107.9 24.1630
4111.1 24.1680
4114.4 24.1730
4117.7 24.1740
4120.9 24.1690
4124.2 24.1590
4127.5 24.1420
4130.8 24.1220
4134.1 24.1000
4137.4 24.0750
4140.7 24.0490
4144 24.0210
4147.3 23.9910
4150.6 23.9590
4154 23.9260
4157.3 23.8930
4160.6 23.8600
4164 23.8250
4167.3 23.7900
4170.7 23.7530
4174 23.7150
4177.4 23.6760
4180.8 23.6360
4184.1 23.5960
4187.5 23.5520
4190.9 23.5020
4194.3 23.4420
4197.7 23.3700
4201.1 23.2830
4204.5 23.1800
4207.9 23.0590
4211.3 22.9230
4214.8 22.7730
4218.2 22.6150
4221.6 22.4590
4225.1 22.3150
4228.5 22.1950
4232 22.1070
4235.4 22.0560
4238.9 22.0380
4242.4 22.0420
4245.8 22.0490
4249.3 22.0390
4252.8 21.9990
4256.3 21.9200
4259.8 21.8090
4263.3 21.6790
4266.8 21.5510
4270.3 21.4440
4273.8 21.3720
4277.4 21.3390
4280.9 21.3390
4284.4 21.3640
4288 21.4000
4291.5 21.4390
4295.1 21.4730
4298.6 21.5000
4302.2 21.5210
4305.8 21.5350
4309.4 21.5450
4312.9 21.5530
4316.5 21.5590
4320.1 21.5600
4323.7 21.5570
4327.3 21.5480
4331 21.5320
4334.6 21.5110
4338.2 21.4880
4341.8 21.4630
4345.5 21.4390
4349.1 21.4140
4352.8 21.3870
4356.4 21.3550
4360.1 21.3180
4363.8 21.2780
4367.4 21.2330
4371.1 21.1880
4374.8 21.1430
4378.5 21.0960
4382.2 21.0480
4385.9 20.9950
4389.6 20.9400
4393.4 20.8820
4397.1 20.8230
4400.8 20.7670
4404.5 20.7140
4408.3 20.6640
4412 20.6170
4415.8 20.5700
4419.6 20.5210
4423.3 20.4700
4427.1 20.4150
4430.9 20.3570
4434.7 20.2950
4438.5 20.2300
4442.3 20.1630
4446.1 20.0950
4449.9 20.0250
4453.7 19.9550
4457.6 19.8850
4461.4 19.8130
4465.2 19.7380
4469.1 19.6590
4473 19.5760
4476.8 19.4930
4480.7 19.4120
4484.6 19.3390
4488.4 19.2780
4492.3 19.2320
4496.2 19.2020
4500.1 19.1850
4504 19.1780
4508 19.1770
4511.9 19.1780
4515.8 19.1780
4519.7 19.1760
4523.7 19.1730
4527.6 19.1720
4531.6 19.1740
4535.6 19.1800
4539.5 19.1890
4543.5 19.1980
4547.5 19.2040
4551.5 19.2040
4555.5 19.1970
4559.5 19.1820
4563.5 19.1610
4567.5 19.1350
4571.6 19.1040
4575.6 19.0640
4579.6 19.0150
4583.7 18.9520
4587.7 18.8770
4591.8 18.7910
4595.9 18.6970
4600 18.5990
4604 18.5000
4608.1 18.4010
4612.2 18.3010
4616.3 18.1950
4620.5 18.0820
4624.6 17.9570
4628.7 17.8220
4632.8 17.6770
4637 17.5250
4641.1 17.3740
4645.3 17.2260
4649.5 17.0860
4653.6 16.9580
4657.8 16.8430
4662 16.7440
4666.2 16.6610
4670.4 16.5960
4674.6 16.5490
4678.8 16.5220
4683.1 16.5140
4687.3 16.5250
4691.5 16.5550
4695.8 16.6030
4700 16.6650
4704.3 16.7390
4708.6 16.8190
4712.9 16.9000
4717.2 16.9750
4721.5 17.0380
4725.8 17.0850
4730.1 17.1130
4734.4 17.1220
4738.7 17.1120
4743.1 17.0880
4747.4 17.0520
4751.7 17.0050
4756.1 16.9510
4760.5 16.8910
4764.8 16.8300
4769.2 16.7710
4773.6 16.7210
4778 16.6840
4782.4 16.6630
4786.8 16.6590
4791.3 16.6700
4795.7 16.6910
4800.1 16.7200
4804.6 16.7500
4809 16.7780
4813.5 16.8000
4818 16.8120
4822.5 16.8120
4827 16.8010
4831.5 16.7780
4836 16.7460
4840.5 16.7040
4845 16.6540
4849.5 16.5970
4854.1 16.5320
4858.6 16.4600
4863.2 16.3810
4867.8 16.2960
4872.3 16.2050
4876.9 16.1040
4881.5 15.9920
4886.1 15.8670
4890.7 15.7290
4895.3 15.5780
4900 15.4190
4904.6 15.2590
4909.2 15.1030
4913.9 14.9600
4918.6 14.8330
4923.2 14.7260
4927.9 14.6360
4932.6 14.5580
4937.3 14.4860
4942 14.4100
4946.7 14.3250
4951.4 14.2260
4956.2 14.1140
4960.9 13.9920
4965.7 13.8660
4970.4 13.7430
4975.2 13.6290
4980 13.5280
4984.8 13.4400
4989.6 13.3630
4994.4 13.2970
4999.2 13.2370
5004 13.1840
5008.8 13.1400
5013.7 13.1070
5018.5 13.0860
5023.4 13.0790
5028.3 13.0820
5033.2 13.0880
5038 13.0930
5043 13.0890
5047.9 13.0730
5052.8 13.0470
5057.7 13.0110
5062.7 12.9720
5067.6 12.9340
5072.6 12.9010
5077.5 12.8760
5082.5 12.8610
5087.5 12.8560
5092.5 12.8580
5097.5 12.8630
5102.5 12.8690
5107.5 12.8670
5112.6 12.8540
5117.6 12.8270
5122.7 12.7870
5127.7 12.7380
5132.8 12.6850
5137.9 12.6370
5143 12.5990
5148.1 12.5720
5153.2 12.5560
5158.4 12.5450
5163.5 12.5360
5168.6 12.5230
5173.8 12.5000
5179 12.4650
5184.2 12.4130
5189.3 12.3450
5194.5 12.2610
5199.8 12.1640
5205 12.0570
5210.2 11.9440
5215.4 11.8260
5220.7 11.7030
5226 11.5750
5231.2 11.4410
5236.5 11.3000
5241.8 11.1550
5247.1 11.0070
5252.4 10.8590
5257.8 10.7110
5263.1 10.5640
5268.4 10.4200
5273.8 10.2810
5279.2 10.1520
5284.6 10.0370
5290 9.9404
5295.4 9.8623
5300.8 9.8000
5306.2 9.7470
5311.6 9.6941
5317.1 9.6321
5322.5 9.5556
5328 9.4641
5333.5 9.3647
5339 9.2690
5344.5 9.1911
5350 9.1435
5355.5 9.1325
5361.1 9.1582
5366.6 9.2138
5372.2 9.2895
5377.8 9.3716
5383.3 9.4475
5388.9 9.5061
5394.5 9.5405
5400.2 9.5493
5405.8 9.5381
5411.4 9.5180
5417.1 9.5010
5422.8 9.4939
5428.4 9.4939
5434.1 9.4895
5439.8 9.4631
5445.5 9.4004
5451.3 9.2951
5457 9.1555
5462.8 8.9975
5468.5 8.8408
5474.3 8.6992
5480.1 8.5783
5485.9 8.4734
5491.7 8.3738
5497.5 8.2680
5503.3 8.1460
5509.2 7.9980
5515.1 7.8157
5520.9 7.5906
5526.8 7.3144
5532.7 6.9851
5538.6 6.6111
5544.5 6.2153
5550.5 5.8345
5556.4 5.5115
5562.4 5.2878
5568.4 5.1946
5574.4 5.2412
5580.4 5.4162
5586.4 5.6872
5592.4 6.0095
5598.4 6.3349
5604.5 6.6203
5610.6 6.8379
5616.6 6.9770
5622.7 7.0449
5628.8 7.0622
5634.9 7.0564
5641.1 7.0513
5647.2 7.0630
5653.4 7.0947
5659.6 7.1401
5665.7 7.1841
5671.9 7.2117
5678.2 7.2117
5684.4 7.1811
5690.6 7.1247
5696.9 7.0532
5703.1 6.9790
5709.4 6.9123
5715.7 6.8562
5722 6.8054
5728.3 6.7488
5734.7 6.6750
5741 6.5793
5747.4 6.4673
5753.8 6.3562
5760.2 6.2685
5766.6 6.2212
5773 6.2160
5779.4 6.2366
5785.9 6.2536
5792.3 6.2366
5798.8 6.1672
5805.3 6.0483
5811.8 5.9021
5818.4 5.7598
5824.9 5.6452
5831.4 5.5652
5838 5.5056
5844.6 5.4385
5851.2 5.3352
5857.8 5.1809
5864.4 4.9824
5871.1 4.7632
5877.7 4.5544
5884.4 4.3808
5891.1 4.2512
5897.8 4.1560
5904.5 4.0742
5911.2 3.9834
5918 3.8713
5924.7 3.7392
5931.5 3.5998
5938.3 3.4687
5945.1 3.3572
5952 3.2681
5958.8 3.1968
5965.7 3.1357
5972.5 3.0801
5979.4 3.0300
5986.3 2.9885
5993.2 2.9560
6000.2 2.9292
6007.1 2.8979
6014.1 2.8525
6021.1 2.7856
6028.1 2.6985
6035.1 2.6023
6042.1 2.5132
6049.2 2.4458
6056.3 2.4084
6063.3 2.4001
6070.4 2.4114
6077.6 2.4287
6084.7 2.4416
6091.8 2.4448
6099 2.4399
6106.2 2.4326
6113.4 2.4297
6120.6 2.4360
6127.8 2.4517
6135.1 2.4726
6142.4 2.4946
6149.6 2.5146
6157 2.5332
6164.3 2.5544
6171.6 2.5854
6179 2.6348
6186.3 2.7075
6193.7 2.8049
6201.1 2.9238
6208.6 3.0574
6216 3.1982
6223.5 3.3396
6231 3.4780
6238.5 3.6121
6246 3.7419
6253.5 3.8682
6261.1 3.9910
6268.6 4.1091
6276.2 4.2226
6283.8 4.3313
6291.4 4.4350
6299.1 4.5329
6306.8 4.6255
6314.4 4.7139
6322.1 4.8025
6329.9 4.8994
6337.6 5.0137
6345.4 5.1506
6353.1 5.3064
6360.9 5.4658
6368.7 5.6057
6376.6 5.7029
6384.4 5.7463
6392.3 5.7466
6400.2 5.7341
6408.1 5.7488
6416 5.8223
6424 5.9617
6432 6.1423
6439.9 6.3154
6448 6.4258
6456 6.4365
6464 6.3435
6472.1 6.1777
6480.2 5.9936
6488.3 5.8469
6496.4 5.7724
6504.6 5.7744
6512.8 5.8269
6520.9 5.8869
6529.2 5.9131
6537.4 5.8811
6545.6 5.7915
6553.9 5.6655
6562.2 5.5334
6570.5 5.4214
6578.9 5.3406
6587.2 5.2842
6595.6 5.2346
6604 5.1728
6612.4 5.0891
6620.9 4.9858
6629.4 4.8760
6637.8 4.7751
6646.4 4.6946
6654.9 4.6345
6663.4 4.5884
6672 4.5456
6680.6 4.4978
6689.2 4.4431
6697.9 4.3860
6706.5 4.3323
6715.2 4.2866
6723.9 4.2478
6732.7 4.2107
6741.4 4.1672
6750.2 4.1106
6759 4.0400
6767.8 3.9604
6776.7 3.8826
6785.5 3.8159
6794.4 3.7661
6803.4 3.7322
6812.3 3.7068
6821.3 3.6804
6830.2 3.6470
6839.3 3.6069
6848.3 3.5684
6857.3 3.5415
6866.4 3.5344
6875.5 3.5481
6884.7 3.5759
6893.8 3.6050
6903 3.6233
6912.2 3.6225
6921.4 3.6033
6930.7 3.5723
6940 3.5400
6949.3 3.5173
6958.6 3.5122
6967.9 3.5256
6977.3 3.5535
6986.7 3.5886
6996.2 3.6223
7005.6 3.6484
7015.1 3.6667
7024.6 3.6809
7034.1 3.6970
7043.7 3.7212
7053.3 3.7549
7062.9 3.7920
7072.5 3.8220
7082.2 3.8323
7091.9 3.8135
7101.6 3.7627
7111.3 3.6858
7121.1 3.5957
7130.9 3.5076
7140.7 3.4350
7150.6 3.3857
7160.4 3.3613
7170.3 3.3572
7180.3 3.3669
7190.2 3.3843
7200.2 3.4058
7210.2 3.4299
7220.3 3.4565
7230.3 3.4853
7240.4 3.5159
7250.6 3.5471
7260.7 3.5786
7270.9 3.6118
7281.1 3.6475
7291.4 3.6880
7301.6 3.7341
7311.9 3.7856
7322.3 3.8398
7332.6 3.8933
7343 3.9441
7353.4 3.9900
7363.9 4.0315
7374.3 4.0703
7384.8 4.1079
7395.4 4.1460
7405.9 4.1848
7416.5 4.2246
7427.2 4.2656
7437.8 4.3076
7448.5 4.3525
7459.2 4.4009
7470 4.4529
7480.7 4.5085
7491.6 4.5657
7502.4 4.6216
7513.3 4.6750
7524.2 4.7244
7535.1 4.7700
7546.1 4.8130
7557.1 4.8555
7568.1 4.8987
7579.2 4.9438
7590.3 4.9922
7601.4 5.0437
7612.6 5.0991
7623.8 5.1597
7635 5.2256
7646.2 5.2969
7657.5 5.3716
7668.9 5.4460
7680.2 5.5149
7691.6 5.5727
7703.1 5.6150
7714.5 5.6409
7726 5.6526
7737.5 5.6545
7749.1 5.6528
7760.7 5.6523
7772.3 5.6553
7784 5.6614
7795.7 5.6699
7807.5 5.6785
7819.2 5.6863
7831 5.6941
7842.9 5.7038
7854.8 5.7180
7866.7 5.7378
7878.6 5.7649
7890.6 5.7983
7902.7 5.8364
7914.7 5.8767
7926.8 5.9175
7939 5.9565
7951.2 5.9929
7963.4 6.0256
7975.6 6.0549
7987.9 6.0815
8000.2 6.1059
8012.6 6.1301
8025 6.1555
8037.4 6.1846
8049.9 6.2190
8062.4 6.2607
8075 6.3120
8087.6 6.3733
8100.2 6.4438
8112.9 6.5217
8125.6 6.6023
8138.4 6.6789
8151.2 6.7449
8164 6.7932
8176.9 6.8196
8189.8 6.8227
8202.8 6.8034
8215.8 6.7654
8228.8 6.7124
8241.9 6.6482
8255 6.5747
8268.2 6.4931
8281.4 6.4043
8294.6 6.3103
8307.9 6.2151
8321.3 6.1235
8334.7 6.0408
8348.1 5.9695
8361.5 5.9104
8375 5.8611
8388.6 5.8181
8402.2 5.7785
8415.8 5.7417
8429.5 5.7075
8443.2 5.6787
8457 5.6548
8470.8 5.6348
8484.7 5.6150
8498.6 5.5893
8512.6 5.5515
8526.6 5.4983
8540.6 5.4282
8554.7 5.3454
8568.8 5.2580
8583 5.1770
8597.3 5.1130
8611.6 5.0749
8625.9 5.0654
8640.3 5.0806
8654.7 5.1099
8669.2 5.1406
8683.7 5.1601
8698.2 5.1601
8712.9 5.1377
8727.5 5.0962
8742.2 5.0425
8757 4.9834
8771.8 4.9253
8786.7 4.8716
8801.6 4.8249
8816.6 4.7854
8831.6 4.7527
8846.7 4.7253
8861.8 4.7009
8877 4.6753
8892.2 4.6453
8907.5 4.6081
8922.8 4.5644
8938.2 4.5173
8953.6 4.4717
8969.1 4.4338
8984.7 4.4084
9000.3 4.3987
9015.9 4.4045
9031.6 4.4258
9047.4 4.4599
9063.2 4.5041
9079.1 4.5544
9095 4.6055
9111 4.6531
9127 4.6914
9143.1 4.7192
9159.3 4.7380
9175.5 4.7529
9191.8 4.7698
9208.1 4.7939
9224.5 4.8286
9240.9 4.8721
9257.4 4.9202
9274 4.9668
9290.6 5.0068
9307.3 5.0369
9324 5.0561
9340.8 5.0654
9357.7 5.0671
9374.6 5.0637
9391.6 5.0588
9408.6 5.0544
9425.7 5.0544
9442.9 5.0603
9460.1 5.0742
9477.4 5.0954
9494.8 5.1221
9512.2 5.1516
9529.7 5.1797
9547.2 5.2019
9564.9 5.2126
9582.5 5.2082
9600.3 5.1868
9618.1 5.1496
9636 5.1013
9653.9 5.0486
9671.9 4.9983
9690 4.9536
9708.2 4.9148
9726.4 4.8769
9744.7 4.8345
9763 4.7834
9781.4 4.7222
9799.9 4.6531
9818.5 4.5808
9837.1 4.5107
9855.8 4.4468
9874.6 4.3901
9893.4 4.3406
9912.3 4.2954
9931.3 4.2527
9950.4 4.2102
9969.5 4.1660
9988.7 4.1211
10008 4.0759
10027 4.0317
10047 3.9907
10066 3.9524
10086 3.9162
10106 3.8789
10125 3.8367
10145 3.7859
10165 3.7261
10185 3.6597
10205 3.5918
10225 3.5290
10245 3.4766
10266 3.4372
10286 3.4106
10306 3.3948
10327 3.3850
10348 3.3760
10368 3.3633
10389 3.3435
10410 3.3147
10431 3.2788
10452 3.2395
10473 3.2014
10494 3.1699
10516 3.1477
10537 3.1348
10558 3.1294
10580 3.1284
10602 3.1294
10623 3.1309
10645 3.1323
10667 3.1338
10689 3.1348
10711 3.1355
10733 3.1350
10755 3.1330
10778 3.1284
10800 3.1206
10823 3.1084
10846 3.0913
10868 3.0708
10891 3.0486
10914 3.0293
10937 3.0176
10960 3.0183
10983 3.0330
11007 3.0608
11030 3.0981
11054 3.1396
11077 3.1811
11101 3.2197
11125 3.2563
11149 3.2920
11173 3.3284
11197 3.3655
11221 3.4009
11245 3.4309
11270 3.4502
11294 3.4553
11319 3.4434
11344 3.4141
11369 3.3704
11394 3.3176
11419 3.2637
11444 3.2168
11469 3.1848
11495 3.1726
11520 3.1794
11546 3.1997
11572 3.2248
11598 3.2446
11624 3.2507
11650 3.2390
11676 3.2104
11702 3.1704
11729 3.1277
11755 3.0913
11782 3.0681
11809 3.0608
11836 3.0666
11863 3.0781
11890 3.0850
11918 3.0774
11945 3.0503
11973 3.0041
12000 2.9448
12028 2.8821
12056 2.8245
12084 2.7776
12113 2.7405
12141 2.7078
12169 2.6733
12198 2.6328
12227 2.5874
12256 2.5422
12285 2.5044
12314 2.4795
12343 2.4690
12373 2.4695
12402 2.4748
12432 2.4778
12462 2.4741
12492 2.4609
12522 2.4402
12552 2.4145
12583 2.3887
12614 2.3669
12644 2.3525
12675 2.3472
12706 2.3511
12737 2.3608
12769 2.3735
12800 2.3843
12832 2.3904
12864 2.3889
12896 2.3804
12928 2.3662
12960 2.3484
12993 2.3306
13026 2.3152
13058 2.3042
13091 2.2976
13124 2.2935
13158 2.2881
13191 2.2786
13225 2.2634
13259 2.2441
13293 2.2241
13327 2.2078
13361 2.1985
13396 2.1965
13430 2.1992
13465 2.2017
13500 2.2004
13536 2.1929
13571 2.1789
13607 2.1609
13643 2.1404
13679 2.1177
13715 2.0923
13751 2.0615
13788 2.0244
13824 1.9814
13861 1.9365
13899 1.8950
13936 1.8647
13973 1.8501
14011 1.8525
14049 1.8684
14087 1.8918
14126 1.9158
14164 1.9348
14203 1.9477
14242 1.9573
14281 1.9683
14321 1.9853
14361 2.0102
14400 2.0430
14441 2.0789
14481 2.1125
14521 2.1377
14562 2.1499
14603 2.1467
14645 2.1277
14686 2.0957
14728 2.0566
14770 2.0171
14812 1.9849
14854 1.9653
14897 1.9636
14940 1.9810
14983 2.0144
